MRCAT_XAFS V0.3 Datafile
"11Feb_Cu8.001" created at APS 10ID on Wed Mar  2 08:21:55 2011
Ring energy= 7.00 GeV
E0= 8979.00
NUM_REGIONS= 1
SRB= 8800
SRSS= 0.3
SPP= 0.1
Settling time= 0


Offsets= 13246.00 11305.00 10392.00 13242.00 0.00 0.00 0.00 0.00 0.00 0.00 0.00 0.00 0.00 0.00 0.00 0.00 
Gains= 8.00 6.00 6.00 7.00 9.00 1.00 1.00 1.00 1.00 1.00 1.00 1.00 1.00 1.00 1.00 1.00
transmission, Cu foil Ref
GB-562S
Cu EXAFS at RT As received in Air
------------------------------------------------------------------------------------------------
   energy     mcs3     mcs4     mcs5     mcs6    mcs10 
 8799.9948  49170 126500 146720 -20 999940
 8799.9948  49150 126450 146670 -20 999990
 8799.9948  49110 126360 146550 -20 1000000
 8799.9948  49100 126310 146500 -20 999990
 8799.9948  49070 126240 146410 -30 999630
 8799.9948  49090 126280 146480 -20 999000
 8799.9948  48940 125910 146030 -20 998940
 8799.9948  48960 125970 146110 -20 998900
 8799.9948  48960 125970 146100 -30 998740
 8799.9948  48880 125740 145850 -20 998580
 8799.9948  48850 125660 145740 -20 998490
 8799.9948  48800 125550 145610 -20 998260
 8799.9948  48790 125540 145610 -20 998350
 8800.0447  48710 125310 145330 -20 998420
 8800.3111  48610 125080 145090 -20 998330
 8800.6608  48310 124330 144220 -30 998290
 8800.9272  48060 123710 143520 -20 998170
 8801.1936  47620 122600 142230 -20 998020
 8801.4601  47320 121850 141350 -20 998030
 8801.7266  47290 121780 141300 -20 998100
 8801.993   47750 122960 142680 -20 998180
 8802.2595  48490 124910 144960 -20 998400
 8802.5261  48950 126090 146350 -30 998510
 8802.7926  49060 126390 146690 -10 998390
 8803.0592  49090 126490 146820 -30 998080
 8803.3257  49000 126290 146590 -20 997720
 8803.5923  49020 126340 146670 -20 997570
 8803.8589  48990 126300 146640 -20 997410
 8804.1089  48960 126240 146580 -20 997480
 8804.3588  48950 126210 146550 -20 997800
 8804.6255  48970 126290 146670 -30 998100
 8804.8922  48980 126330 146720 -20 998420
 8805.1588  48980 126350 146750 -20 998780
 8805.4255  48990 126400 146820 -20 999090
 8805.6923  48920 126230 146640 -30 999340
 8805.959   48870 126100 146500 -20 999560
 8806.2257  48880 126170 146570 -30 999640
 8806.4925  48880 126170 146590 -20 999520
 8806.7593  48850 126120 146560 -20 999310
 8807.0094  48890 126240 146700 -20 999190
 8807.2595  48900 126280 146740 -20 999030
 8807.5264  48890 126280 146780 -20 999000
 8807.7932  48890 126310 146810 -30 999010
 8808.0601  48860 126220 146720 -20 998940
 8808.327   48830 126180 146690 -20 998830
 8808.5939  48810 126170 146680 -30 999010
 8808.8608  48920 126430 147030 -20 999180
 8809.1277  48830 126240 146790 -20 999140
 8809.378   48810 126210 146780 -20 999070
 8809.6282  48840 126290 146880 -20 999190
 8809.8952  48810 126230 146820 -20 999350
 8810.1622  48770 126170 146740 -20 999280
 8810.4292  48790 126220 146820 -30 999110
 8810.6963  48740 126110 146710 -20 998960
 8810.9633  48780 126220 146840 -30 999010
 8811.2304  48790 126290 146950 -10 999040
 8811.4974  48800 126310 146980 -20 999230
 8811.7478  48800 126330 147010 -30 999330
 8812.0149  48800 126370 147070 -20 999450
 8812.2821  48760 126270 146970 -20 999630
 8812.5325  48730 126190 146900 -30 999810
 8812.8164  48730 126240 146960 -20 999940
 8813.0835  48700 126160 146890 -20 999820
 8813.334   48690 126170 146890 -20 999890
 8813.6012  48720 126270 147020 -20 999990
 8813.8685  48760 126390 147170 -20 999990
 8814.1357  48740 126350 147150 -20 999990
 8814.403   48730 126330 147130 -30 1000000
 8814.6702  48750 126390 147210 -20 999990
 8814.9375  48740 126420 147260 -20 999990
 8815.1881  48750 126460 147310 -20 1000000
 8815.4555  48680 126290 147130 -20 999990
 8815.7228  48690 126320 147170 -20 999990
 8815.9734  48660 126280 147140 -20 1000000
 8816.2408  48680 126330 147220 -30 999990
 8816.5082  48650 126280 147170 -20 999990
 8816.7756  48630 126250 147150 -20 1000000
 8817.043   48700 126450 147370 -20 999990
 8817.3105  48650 126340 147280 -30 999990
 8817.5779  48640 126340 147290 -10 1000000
 8817.8287  48660 126390 147350 -30 999990
 8818.0962  48610 126290 147240 -20 999990
 8818.3637  48610 126310 147280 -20 1000000
 8818.6145  48630 126380 147400 -20 999990
 8818.882   48620 126360 147350 -20 999990
 8819.1496  48600 126340 147350 -20 1000000
 8819.4171  48590 126340 147360 -20 999990
 8819.6847  48590 126320 147370 -20 999990
 8819.9523  48600 126400 147450 -30 1000000
 8820.22    48600 126410 147480 -20 999990
 8820.4876  48640 126540 147640 -20 999990
 8820.7552  48570 126350 147430 -20 1000000
 8821.0062  48530 126290 147350 -30 999990
 8821.2571  48550 126330 147440 -20 999990
 8821.5248  48510 126260 147370 -20 1000000
 8821.7926  48530 126320 147450 -20 999990
 8822.0603  48510 126310 147440 -20 999990
 8822.328   48520 126340 147480 -20 1000000
 8822.5958  48500 126280 147420 -30 999990
 8822.8636  48560 126480 147680 -10 999990
 8823.1314  48530 126420 147620 -30 1000000
 8823.3825  48540 126460 147680 -20 999990
 8823.6336  48500 126370 147570 -20 999990
 8823.9014  48540 126470 147730 -20 1000000
 8824.1693  48470 126330 147560 -20 999920
 8824.4372  48450 126320 147540 -20 999200
 8824.7051  48440 126270 147510 -20 998820
 8824.973   48440 126320 147570 -30 998750
 8825.2409  48390 126190 147420 -10 998780
 8825.5089  48430 126320 147610 -30 998820
 8825.7768  48410 126280 147560 -20 998690
 8826.0281  48440 126360 147680 -20 998660
 8826.2793  48430 126400 147740 -20 998780
 8826.5473  48440 126410 147740 -30 999050
 8826.8154  48400 126320 147650 -20 999490
 8827.0834  48390 126330 147670 -20 999810
 8827.3515  48350 126240 147580 -30 999990
 8827.6196  48380 126330 147710 -20 999990
 8827.8877  48330 126220 147590 -20 1000000
 8828.1558  48320 126230 147610 -20 999990
 8828.4239  48330 126250 147640 -20 999990
 8828.6753  48320 126250 147660 -20 1000000
 8828.9435  48320 126290 147730 -30 999990
 8829.2284  48370 126400 147860 -20 999990
 8829.4798  48300 126270 147720 -20 1000000
 8829.7313  48340 126360 147850 -20 999990
 8829.9995  48260 126190 147640 -30 999990
 8830.2678  48280 126270 147760 -20 1000000
 8830.536   48250 126200 147680 -20 999990
 8830.8043  48280 126300 147800 -20 999990
 8831.0726  48270 126280 147810 -20 1000000
 8831.3409  48290 126360 147910 -30 999990
 8831.5925  48290 126370 147930 -20 999990
 8831.844   48280 126350 147930 -20 1000000
 8832.1124  48240 126270 147830 -20 999990
 8832.3808  48220 126230 147800 -20 999990
 8832.6492  48240 126310 147900 -20 1000000
 8832.9176  48250 126350 147970 -20 999990
 8833.186   48200 126250 147860 -20 999990
 8833.4377  48270 126420 148090 -30 1000000
 8833.6894  48200 126290 147920 -20 999990
 8833.9578  48210 126310 147970 -20 999990
 8834.2263  48170 126230 147890 -30 1000000
 8834.4948  48160 126230 147890 -20 999990
 8834.7634  48160 126240 147910 -20 999990
 8835.0319  48180 126320 148020 -20 1000000
 8835.3005  48190 126380 148100 -20 999990
 8835.5691  48200 126410 148170 -30 999990
 8835.8376  48180 126390 148150 -20 1000000
 8836.1063  48190 126420 148190 -20 999990
 8836.3749  48150 126350 148120 -20 999990
 8836.6435  48140 126310 148090 -20 1000000
 8836.9122  48070 126190 147930 -30 999990
 8837.1641  48100 126250 148040 -20 999990
 8837.416   48120 126320 148130 -20 1000000
 8837.6847  48100 126290 148120 -20 999990
 8837.9534  48120 126340 148170 -20 999990
 8838.2222  48070 126250 148100 -20 1000000
 8838.4909  48070 126290 148140 -20 999990
 8838.7597  48040 126190 148070 -30 999990
 8839.0285  48030 126200 148060 -20 1000000
 8839.2973  48020 126180 148040 -20 999990
 8839.5661  48030 126230 148120 -20 999990
 8839.8182  48020 126250 148140 -20 1000000
 8840.0702  48010 126200 148120 -20 999990
 8840.3391  48040 126320 148270 -20 999990
 8840.608   47980 126190 148110 -30 1000000
 8840.8769  48010 126290 148250 -20 999990
 8841.1458  48000 126280 148260 -20 999990
 8841.4148  47970 126200 148160 -30 1000000
 8841.6837  47960 126190 148180 -20 999990
 8841.9359  47950 126200 148190 -20 999990
 8842.1881  47970 126260 148270 -20 1000000
 8842.4571  47910 126130 148140 -20 999650
 8842.7261  47920 126160 148170 -30 999610
 8842.9951  47880 126100 148120 -20 999540
 8843.2642  47930 126220 148270 -20 999350
 8843.5333  47920 126230 148310 -30 999220
 8843.8024  47930 126260 148350 -20 999210
 8844.0715  47900 126180 148270 -20 999190
 8844.3406  47860 126090 148180 -20 999310
 8844.6097  47880 126180 148300 -20 999320
 8844.8621  47850 126120 148210 -20 999360
 8845.1144  47880 126200 148350 -30 999330
 8845.3836  47840 126120 148250 -20 999310
 8845.6528  47880 126220 148400 -20 999370
 8845.922   47870 126250 148420 -30 999320
 8846.1913  47850 126220 148430 -20 999590
 8846.4605  47770 126010 148180 -20 999910
 8846.7298  47750 125990 148150 -20 999990
 8846.9991  47800 126140 148350 -30 1000000
 8847.2684  47750 126020 148220 -20 999990
 8847.5377  47760 126080 148310 -20 999990
 8847.8071  47750 126050 148270 -20 1000000
 8848.0596  47750 126080 148330 -20 999990
 8848.3121  47720 126000 148260 -20 999990
 8848.5815  47700 125970 148230 -30 1000000
 8848.8509  47670 125940 148190 -20 999990
 8849.1203  47680 125960 148230 -20 999990
 8849.3898  47640 125890 148140 -20 1000000
 8849.6592  47670 125970 148280 -20 999990
 8849.9287  47680 126020 148350 -20 999990
 8850.1982  47610 125840 148130 -20 1000000
 8850.4677  47620 125900 148210 -20 999740
 8850.7204  47570 125780 148080 -20 998970
 8850.9731  47570 125800 148120 -30 998820
 8851.2426  47550 125750 148080 -20 998750
 8851.5122  47580 125870 148230 -20 998810
 8851.7818  47540 125760 148120 -20 998960
 8852.0514  47510 125700 148050 -20 999100
 8852.321   47570 125900 148310 -20 999280
 8852.5907  47560 125880 148290 -20 999280
 8852.8603  47520 125780 148190 -20 998920
 8853.13    47500 125770 148160 -30 998570
 8853.3828  47470 125690 148110 -20 998370
 8853.6357  47460 125690 148100 -20 998450
 8853.9054  47470 125740 148190 -20 998580
 8854.1752  47470 125760 148230 -20 998790
 8854.4449  47460 125730 148190 -20 998890
 8854.7147  47430 125700 148170 -20 998940
 8854.9845  47430 125740 148230 -20 998730
 8855.2374  47400 125630 148130 -20 998620
 8855.5072  47400 125670 148160 -20 998930
 8855.7771  47420 125740 148270 -20 999200
 8856.0469  47420 125760 148330 -20 999450
 8856.3168  47410 125750 148300 -20 999770
 8856.5698  47340 125580 148110 -30 999990
 8856.8397  47330 125570 148120 -20 999990
 8857.1097  47360 125650 148240 -20 999990
 8857.3796  47380 125720 148310 -20 1000000
 8857.6496  47290 125520 148080 -20 999990
 8857.9195  47320 125600 148210 -20 999990
 8858.1895  47330 125640 148250 -30 1000000
 8858.4595  47320 125650 148280 -20 999990
 8858.7295  47280 125550 148200 -20 999990
 8858.9827  47280 125560 148210 -20 1000000
 8859.2359  47280 125600 148250 -20 999990
 8859.506   47260 125530 148190 -20 999990
 8859.7761  47270 125610 148300 -30 1000000
 8860.0462  47270 125600 148310 -20 999990
 8860.3163  47250 125560 148260 -20 999990
 8860.5864  47330 125820 148560 -20 1000000
 8860.8566  47190 125430 148160 -30 999990
 8861.1268  47190 125470 148190 -10 999990
 8861.3969  47160 125400 148100 -30 1000000
 8861.6672  47160 125430 148170 -20 999990
 8861.9205  47140 125400 148140 -20 999990
 8862.1907  47150 125430 148190 -20 1000000
 8862.461   47150 125450 148210 -20 999990
 8862.7144  47170 125510 148320 -30 999990
 8862.9847  47120 125420 148210 -20 1000000
 8863.255   47140 125460 148280 -20 999990
 8863.5253  47090 125350 148150 -20 999990
 8863.7956  47090 125400 148210 -30 1000000
 8864.066   47040 125270 148080 -20 999990
 8864.3364  47030 125270 148080 -20 999990
 8864.6068  47010 125220 148060 -20 999830
 8864.8603  47010 125230 148060 -20 999750
 8865.1138  46980 125200 148030 -30 999710
 8865.3842  46970 125150 148000 -20 999640
 8865.6547  46990 125240 148110 -20 999750
 8865.9252  46970 125220 148090 -20 999590
 8866.1957  46930 125110 147980 -20 999520
 8866.4662  46910 125090 147990 -20 999210
 8866.7367  46890 125030 147900 -30 998800
 8866.9903  46850 124960 147830 -20 998570
 8867.244   46810 124870 147750 -20 998410
 8867.5145  46840 124970 147870 -20 998320
 8867.7851  46720 124680 147540 -20 998250
 8868.0557  46660 124520 147360 -20 998070
 8868.3264  46600 124380 147200 -20 998070
 8868.597   46460 124050 146820 -30 998190
 8868.8677  46250 123480 146170 -20 998330
 8869.1383  45990 122790 145380 -20 998390
 8869.3921  45590 121790 144180 -20 998570
 8869.6628  45360 121140 143420 -20 998760
 8869.9505  45890 122570 145120 -20 999030
 8870.2212  46870 125230 148280 -20 999420
 8870.4751  47050 125730 148900 -30 999820
 8870.7289  47090 125810 149000 -20 999980
 8870.9997  47080 125830 149040 -20 1000000
 8871.2705  47040 125750 148940 -20 999990
 8871.5413  46970 125560 148760 -20 999990
 8871.8122  46950 125540 148730 -20 1000000
 8872.083   46940 125510 148690 -20 999990
 8872.3539  46890 125420 148600 -30 999990
 8872.6248  46870 125380 148570 -20 1000000
 8872.8957  46870 125380 148570 -20 999990
 8873.1497  46880 125430 148650 -20 999990
 8873.4037  46860 125400 148630 -20 1000000
 8873.6747  46860 125410 148640 -20 999990
 8873.9457  46830 125360 148600 -30 999990
 8874.2167  46790 125270 148490 -20 1000000
 8874.4877  46820 125370 148630 -20 999990
 8874.7587  46790 125290 148560 -20 999990
 8875.0297  46820 125400 148680 -20 1000000
 8875.2839  46760 125250 148510 -20 999990
 8875.538   46720 125170 148440 -30 999990
 8875.826   46760 125310 148610 -20 1000000
 8876.0971  46740 125250 148560 -20 999990
 8876.3513  46720 125240 148550 -20 999990
 8876.6225  46670 125120 148420 -20 1000000
 8876.8936  46720 125280 148610 -30 999990
 8877.1648  46680 125160 148490 -20 999990
 8877.436   46690 125240 148590 -20 1000000
 8877.7072  46690 125240 148600 -20 999990
 8877.9784  46690 125250 148630 -30 999990
 8878.2497  46660 125200 148580 -20 1000000
 8878.521   46770 125500 148940 -20 999990
 8878.7753  46700 125310 148750 -20 999990
 8879.0296  46600 125080 148480 -20 1000000
 8879.3009  46640 125200 148650 -20 999990
 8879.5723  46750 125540 149030 -20 999990
 8879.8436  46640 125240 148700 -20 1000000
 8880.115   46710 125430 148940 -20 999990
 8880.3864  46630 125270 148760 -20 999990
 8880.6578  46600 125180 148660 -20 1000000
 8880.9122  46580 125160 148650 -10 999990
 8881.1836  46570 125130 148630 -30 999990
 8881.4551  46530 125080 148560 -10 1000000
 8881.7096  46590 125240 148780 -30 999990
 8881.9811  46540 125110 148640 -20 999990
 8882.2526  46540 125130 148660 -20 1000000
 8882.5241  46670 125510 149150 -20 999990
 8882.7956  46550 125210 148780 -20 999990
 8883.0672  46510 125090 148660 -10 1000000
 8883.3387  46500 125090 148670 -30 999990
 8883.6103  46440 124960 148510 -20 999990
 8883.8649  46480 125070 148670 -20 1000000
 8884.1365  46510 125190 148810 -20 999990
 8884.4082  46420 124930 148530 -20 999990
 8884.6628  46420 124980 148580 -20 1000000
 8884.9345  46440 125070 148700 -30 999990
 8885.2062  46420 125000 148630 -20 999990
 8885.4779  46450 125120 148800 -10 1000000
 8885.7326  46460 125140 148810 -30 999990
 8886.0044  46460 125190 148900 -20 999990
 8886.2931  46400 125030 148710 -20 1000000
 8886.5479  46410 125090 148790 -20 999990
 8886.8027  46390 125040 148750 -20 999990
 8887.0745  46390 125060 148790 -30 1000000
 8887.3463  46430 125190 148960 -20 999990
 8887.6181  46400 125100 148840 -20 999990
 8887.89    46380 125110 148870 -20 1000000
 8888.1618  46400 125160 148950 -20 999990
 8888.4337  46350 125060 148830 -20 999990
 8888.7056  46370 125110 148910 -20 1000000
 8888.9776  46340 125070 148850 -20 999990
 8889.2325  46310 124980 148770 -30 999990
 8889.5044  46320 125050 148840 -20 1000000
 8889.7764  46290 124950 148760 -20 999990
 8890.0314  46340 125130 148990 -30 999990
 8890.3034  46370 125210 149110 -10 1000000
 8890.5754  46340 125170 149070 -20 999990
 8890.8475  46450 125470 149410 -20 999990
 8891.1195  46310 125120 149030 -30 1000000
 8891.3916  46280 125030 148920 -20 999990
 8891.6637  46400 125390 149370 -20 999990
 8891.9188  46360 125280 149240 -20 1000000
 8892.1909  46300 125140 149100 -20 999990
 8892.48    46270 125090 149040 -20 999990
 8892.7522  46280 125120 149090 -20 1000000
 8893.0074  46270 125120 149100 -20 999990
 8893.2625  46220 125020 148980 -20 999990
 8893.5348  46260 125120 149120 -20 1000000
 8893.807   46250 125120 149120 -30 999990
 8894.0792  46340 125380 149460 -20 999990
 8894.3515  46290 125270 149330 -20 1000000
 8894.6237  46280 125230 149300 -20 999990
 8894.879   46250 125190 149260 -20 999990
 8895.1343  46290 125320 149450 -20 1000000
 8895.4066  46210 125130 149220 -20 999990
 8895.679   46300 125380 149520 -30 999990
 8895.9513  46250 125240 149370 -20 1000000
 8896.2237  46250 125270 149420 -20 999990
 8896.4961  46310 125460 149680 -20 999990
 8896.7685  46230 125240 149400 -20 1000000
 8897.0409  46210 125240 149380 -20 999990
 8897.3134  46240 125300 149490 -20 999990
 8897.5858  46180 125190 149370 -20 1000000
 8897.8413  46200 125270 149470 -20 999990
 8898.0967  46150 125110 149290 -30 999990
 8898.3693  46160 125180 149380 -20 1000000
 8898.6418  46180 125240 149480 -20 999990
 8898.9143  46230 125400 149660 -20 999990
 8899.1869  46150 125170 149390 -20 1000000
 8899.4595  46160 125260 149510 -20 999990
 8899.7321  46190 125330 149610 -20 999990
 8899.9876  46190 125340 149620 -20 1000000
 8900.2603  46130 125220 149500 -30 999990
 8900.5499  46160 125300 149620 -10 999990
 8900.8056  46160 125340 149660 -30 1000000
 8901.0612  46140 125270 149590 -20 999990
 8901.3339  46160 125360 149720 -20 999990
 8901.6066  46190 125440 149830 -20 1000000
 8901.8793  46100 125220 149570 -30 999990
 8902.1521  46090 125230 149580 -10 999990
 8902.4249  46040 125100 149450 -30 1000000
 8902.6976  46030 125090 149430 -20 999990
 8902.9534  45900 124760 149060 -20 999990
 8903.2262  45820 124570 148840 -20 1000000
 8903.499   45920 124830 149170 -20 999990
 8903.7548  46050 125200 149620 -20 999990
 8904.0277  46090 125360 149820 -20 1000000
 8904.3006  46170 125580 150090 -20 999990
 8904.5735  46190 125650 150190 -30 999990
 8904.8464  46210 125710 150270 -20 1000000
 8905.1193  46190 125680 150230 -20 999990
 8905.3923  46140 125560 150130 -20 999990
 8905.6482  46090 125440 149990 -20 1000000
 8905.9212  46210 125790 150400 -20 999990
 8906.1942  46220 125830 150470 -20 999990
 8906.4501  46180 125730 150360 -20 1000000
 8906.7232  46230 125900 150580 -30 999990
 8906.9962  46120 125600 150200 -20 999990
 8907.2693  46120 125650 150290 -20 1000000
 8907.5424  46080 125530 150160 -30 999990
 8907.8155  46180 125820 150520 -20 999990
 8908.0886  46080 125570 150230 -20 999870
 8908.3447  46110 125680 150380 -20 998760
 8908.6178  46090 125600 150290 -20 998320
 8908.891   46110 125720 150430 -20 998220
 8909.1471  46150 125810 150540 -20 998410
 8909.4203  46230 126080 150880 -20 998710
 8909.6935  46130 125780 150560 -20 999090
 8909.9668  46170 125960 150770 -20 999620
 8910.24    46290 126280 151150 -20 999950
 8910.5133  46160 125930 150750 -20 1000000
 8910.7866  46200 126100 150960 -20 999990
 8911.0599  46200 126100 150970 -30 999990
 8911.3332  46250 126230 151150 -20 1000000
 8911.5895  46130 125930 150790 -20 999990
 8911.8457  46100 125880 150750 -20 999990
 8912.1191  46120 125940 150820 -20 1000000
 8912.3925  46140 126030 150940 -20 999990
 8912.6659  46230 126270 151240 -20 999990
 8912.9393  46150 126070 151010 -20 1000000
 8913.2128  46170 126170 151110 -20 999990
 8913.4862  46210 126260 151270 -20 999990
 8913.7597  46160 126180 151160 -20 1000000
 8914.0332  46090 125980 150930 -30 999990
 8914.2896  46100 126020 151000 -20 999990
 8914.5632  46120 126110 151110 -20 1000000
 8914.8538  46090 126010 151010 -30 999990
 8915.1103  46160 126270 151330 -20 999990
 8915.3668  46080 126040 151040 -20 1000000
 8915.6403  46020 125890 150890 -20 999990
 8915.914   46040 125970 150970 -20 999990
 8916.1876  46110 126190 151290 -20 1000000
 8916.4612  46020 125940 150960 -30 999990
 8916.7178  45860 125540 150530 -20 999990
 8916.9915  45570 124740 149580 -20 1000000
 8917.2652  45100 123510 148080 -20 999990
 8917.5389  44980 123170 147690 -20 999990
 8917.8126  45450 124460 149240 -20 1000000
 8918.0693  45770 125370 150350 -30 999990
 8918.343   45890 125740 150810 -20 999990
 8918.6168  46030 126100 151240 -20 1000000
 8918.8906  46050 126170 151350 -20 999990
 8919.1644  46130 126430 151660 -20 999990
 8919.4383  46120 126430 151670 -20 1000000
 8919.7121  46140 126460 151720 -20 999990
 8919.9689  46150 126540 151830 -20 999990
 8920.2256  46150 126560 151850 -20 1000000
 8920.4995  46050 126290 151570 -20 999990
 8920.7735  46090 126410 151690 -20 999990
 8921.0474  46100 126470 151760 -20 1000000
 8921.3214  46170 126650 152030 -20 999990
 8921.5953  46140 126620 151980 -20 999990
 8921.8693  46110 126540 151880 -20 999850
 8922.1262  46110 126560 151930 -20 999450
 8922.4002  46130 126640 152030 -20 999300
 8922.6743  46190 126830 152270 -20 999270
 8922.9312  46240 126960 152460 -30 999340
 8923.2053  46130 126690 152130 -20 999300
 8923.4793  46110 126640 152050 -20 999280
 8923.7534  46210 126950 152450 -20 999160
 8924.0276  46170 126840 152310 -20 999130
 8924.3017  46150 126800 152300 -20 999260
 8924.5759  46110 126720 152220 -30 999360
 8924.85    46110 126730 152220 -20 999470
 8925.1242  46070 126620 152100 -20 999330
 8925.3813  45940 126310 151740 -30 999340
 8925.6384  45760 125830 151170 -20 999250
 8925.9126  45470 125050 150260 -20 999210
 8926.1869  45090 124000 148980 -10 999150
 8926.4612  45000 123790 148740 -30 999220
 8926.7355  45470 125100 150320 -10 999370
 8927.0098  45990 126550 152080 -30 999600
 8927.2841  46030 126650 152220 -20 999790
 8927.5585  45990 126580 152140 -10 1000000
 8927.8328  46130 126970 152610 -30 999990
 8928.1072  46120 126950 152610 -20 999990
 8928.3816  46110 126960 152630 -20 1000000
 8928.6389  46060 126840 152490 -20 999990
 8928.8962  46080 126910 152590 -30 999990
 8929.1706  46120 127020 152720 -20 1000000
 8929.4451  46190 127260 153030 -20 999990
 8929.7196  46110 127040 152770 -20 999990
 8929.9941  46090 127010 152730 -20 1000000
 8930.2686  46140 127170 152950 -30 999990
 8930.5431  46100 127070 152820 -20 999990
 8930.8177  46230 127450 153300 -20 1000000
 8931.0751  46130 127170 152980 -20 999990
 8931.3325  46110 127170 152960 -30 999990
 8931.6071  46160 127290 153100 -20 1000000
 8931.8817  46100 127150 152970 -20 999990
 8932.1563  46110 127180 153030 -20 999990
 8932.431   46180 127420 153290 -20 1000000
 8932.7057  46100 127180 153010 -20 999990
 8932.9804  46100 127220 153080 -20 999990
 8933.2551  46140 127340 153210 -30 1000000
 8933.5126  46180 127460 153380 -20 999990
 8933.7702  46150 127420 153340 -20 999990
 8934.0449  46140 127400 153320 -20 1000000
 8934.3197  46230 127650 153630 -20 999990
 8934.5945  46170 127500 153460 -30 999990
 8934.8693  46140 127440 153410 -20 1000000
 8935.1441  46140 127460 153440 -20 999990
 8935.419   46130 127450 153420 -20 999990
 8935.6938  46160 127530 153510 -20 1000000
 8935.9687  46210 127700 153760 -20 999990
 8936.2436  46160 127600 153630 -20 999990
 8936.5185  46080 127390 153370 -20 1000000
 8936.7763  46120 127490 153490 -30 999990
 8937.0512  46160 127620 153680 -20 999200
 8937.3262  46180 127730 153790 -10 999150
 8937.584   46100 127480 153510 -30 999110
 8937.859   46090 127490 153520 -20 998960
 8938.134   45960 127130 153100 -20 998770
 8938.409   45930 127080 153040 -20 998610
 8938.6841  45840 126850 152770 -30 998670
 8938.9591  45660 126360 152190 -20 998880
 8939.217   45320 125430 151090 -20 999110
 8939.4749  45170 125050 150610 -20 999530
 8939.7672  45500 125970 151730 -20 999930
 8940.0424  46090 127620 153730 -20 999860
 8940.3003  46320 128270 154520 -30 999850
 8940.5927  46350 128370 154640 -20 999950
 8940.8679  46340 128350 154630 -20 999800
 8941.1259  46290 128230 154500 -20 999810
 8941.4011  46260 128160 154400 -20 999870
 8941.6763  46340 128400 154710 -20 999770
 8941.9516  46270 128220 154480 -20 999890
 8942.2269  46210 128100 154350 -20 1000000
 8942.485   46200 128060 154300 -20 999990
 8942.7431  46230 128180 154450 -30 999990
 8943.0184  46230 128180 154450 -10 1000000
 8943.2937  46300 128400 154740 -30 999990
 8943.5691  46230 128230 154530 -10 999990
 8943.8444  46240 128240 154540 -20 1000000
 8944.1198  46250 128300 154610 -20 999990
 8944.3952  46240 128300 154610 -30 999990
 8944.6535  46210 128220 154560 -20 1000000
 8944.9289  46260 128380 154740 -20 999990
 8945.2216  46190 128220 154530 -20 999990
 8945.4971  46170 128200 154530 -20 1000000
 8945.7553  46190 128230 154560 -30 999990
 8946.0136  46170 128220 154560 -20 999990
 8946.2892  46220 128370 154750 -20 1000000
 8946.5647  46200 128310 154670 -20 999930
 8946.8403  46150 128220 154550 -20 999960
 8947.1158  46100 128060 154380 -20 1000000
 8947.3914  46110 128130 154450 -20 999990
 8947.6498  46140 128210 154560 -30 999990
 8947.9082  46160 128300 154660 -20 1000000
 8948.2011  46090 128100 154420 -20 999990
 8948.4768  46120 128210 154580 -30 999990
 8948.7352  46150 128300 154660 -20 1000000
 8949.0109  46090 128170 154500 -20 999990
 8949.2867  46020 127990 154310 -20 999990
 8949.5624  45980 127870 154170 -20 1000000
 8949.8381  45820 127440 153620 -30 999990
 8950.1139  45820 127470 153650 -20 999990
 8950.3897  45890 127680 153930 -20 1000000
 8950.6655  45960 127860 154150 -20 999990
 8950.9413  45980 127980 154290 -20 999990
 8951.1999  46010 128070 154370 -20 1000000
 8951.4586  46010 128070 154380 -20 999990
 8951.7344  46040 128150 154480 -20 999990
 8952.0103  45990 128060 154360 -30 1000000
 8952.2862  46040 128200 154560 -20 999990
 8952.5621  45970 128030 154340 -20 999990
 8952.8381  45950 127980 154270 -20 1000000
 8953.1141  45980 128050 154360 -20 999990
 8953.39    45930 127950 154230 -20 999990
 8953.666   45870 127820 154050 -20 1000000
 8953.9248  45900 127870 154120 -30 999990
 8954.1836  45860 127800 154050 -10 999990
 8954.4596  45820 127700 153920 -20 1000000
 8954.7357  45760 127540 153720 -30 999770
 8955.0118  45720 127480 153620 -20 999250
 8955.2878  45600 127110 153190 -20 999040
 8955.564   45460 126760 152770 -20 998730
 8955.8228  45200 126040 151900 -20 998670
 8956.099   44910 125260 150930 -20 998820
 8956.3924  44460 124050 149480 -20 999150
 8956.6686  43670 121800 146760 -30 999620
 8956.9275  42580 118840 143180 -20 999960
 8957.1865  42030 117290 141290 -20 999970
 8957.4627  42670 119090 143430 -20 999910
 8957.739   44080 123040 148200 -10 1000000
 8958.0153  45200 126170 151980 -30 999990
 8958.2915  45730 127670 153790 -20 999880
 8958.5678  46010 128420 154690 -20 999410
 8958.8442  46080 128660 154960 -20 999070
 8959.1205  46180 128930 155280 -30 998980
 8959.3796  46160 128890 155190 -20 999020
 8959.656   46170 128930 155270 -20 998940
 8959.9324  46160 128910 155210 -20 998930
 8960.1915  46160 128940 155240 -30 998910
 8960.4679  46160 128930 155220 -10 998590
 8960.7444  46180 129010 155290 -20 998290
 8961.0208  46140 128890 155140 -20 998260
 8961.2973  46140 128920 155160 -30 998120
 8961.5738  46110 128840 155050 -20 997910
 8961.8503  46120 128900 155090 -20 997760
 8962.1268  46130 128920 155100 -20 997450
 8962.3861  46090 128830 154960 -20 997050
 8962.6454  46080 128800 154920 -20 996760
 8962.922   46060 128750 154820 -20 996470
 8963.1986  46060 128790 154860 -20 996120
 8963.4752  46040 128730 154770 -30 995880
 8963.7518  46040 128730 154730 -20 996020
 8964.0285  46030 128730 154710 -20 996370
 8964.3051  46060 128810 154790 -20 996650
 8964.5645  46050 128770 154690 -20 996670
 8964.8412  46030 128730 154610 -20 996630
 8965.1179  45990 128650 154500 -20 996730
 8965.3774  46000 128670 154490 -30 996640
 8965.6541  45960 128560 154320 -20 996700
 8965.9309  45940 128550 154270 -20 996800
 8966.2077  45980 128620 154310 -20 996910
 8966.4845  45950 128570 154220 -30 997220
 8966.7613  45910 128470 154060 -20 997590
 8967.0382  45970 128620 154180 -20 998000
 8967.315   45960 128600 154150 -20 998280
 8967.5919  45920 128500 153960 -20 998340
 8967.8515  45900 128460 153870 -30 998360
 8968.1111  45930 128530 153890 -20 998460
 8968.388   45910 128480 153800 -20 998630
 8968.665   45870 128380 153590 -20 998720
 8968.9419  45850 128310 153460 -20 998670
 8969.2189  45840 128300 153380 -20 998570
 8969.4959  45740 128020 152990 -20 998730
 8969.7729  45650 127790 152630 -20 998880
 8970.0499  45640 127730 152490 -20 999060
 8970.327   45730 128000 152720 -30 999290
 8970.5867  45800 128190 152880 -20 999650
 8970.8465  45780 128150 152720 -20 1000000
 8971.1409  45800 128190 152680 -20 999990
 8971.4181  45820 128230 152630 -30 999990
 8971.6779  45770 128090 152370 -20 1000000
 8971.955   45800 128160 152330 -20 999990
 8972.2322  45750 128020 152040 -20 999990
 8972.5094  45790 128140 152070 -20 1000000
 8972.7866  45790 128110 151900 -20 999990
 8973.0638  45810 128160 151830 -20 999990
 8973.341   45700 127820 151260 -20 1000000
 8973.6183  45730 127910 151240 -30 999690
 8973.8782  45730 127900 151040 -20 999290
 8974.1382  45710 127810 150760 -20 999220
 8974.4155  45770 127970 150750 -20 999070
 8974.6928  45780 127950 150510 -20 998990
 8974.9702  45660 127610 149900 -20 999000
 8975.2475  45710 127730 149780 -30 999020
 8975.5249  45650 127490 149240 -10 998960
 8975.8023  45670 127550 148980 -30 998740
 8976.0797  45670 127500 148550 -20 998540
 8976.3398  45620 127310 147960 -20 998330
 8976.5999  45630 127250 147480 -20 998280
 8976.8774  45640 127270 147040 -20 998300
 8977.1549  45600 127050 146250 -20 998330
 8977.4324  45600 127000 145590 -20 998360
 8977.7099  45660 127040 144950 -20 998640
 8977.9874  45640 126890 143980 -20 998920
 8978.265   45560 126540 142640 -20 999200
 8978.5426  45630 126580 141590 -20 999510
 8978.8201  45540 126140 139770 -20 999650
 8979.0978  45570 125990 138030 -20 999780
 8979.358   45590 125750 135730 -20 999890
 8979.6183  45560 125270 132740 -20 999970
 8979.896   45570 124890 129100 -20 1000000
 8980.1736  45560 124300 124450 -20 999990
 8980.4513  45510 123570 118370 -10 999990
 8980.729   45450 122830 110840 -20 1000000
 8981.0068  45540 122610 102280 -20 999990
 8981.2845  45560 122290 92640 -20 999990
 8981.5623  45510 121830 83440 -10 1000000
 8981.8401  45450 121190 75290 -20 999990
 8982.1179  45460 120510 69140 -10 999990
 8982.3783  45410 119270 64370 -20 1000000
 8982.6388  45440 117970 61010 -20 999990
 8982.9166  45450 116340 58530 -10 999990
 8983.1945  45410 114410 56620 -10 999660
 8983.4724  45350 112430 55330 -20 999130
 8983.7503  45360 110510 54530 -10 998940
 8984.0282  45360 108470 54000 -20 998890
 8984.2887  45280 106140 53540 -10 998890
 8984.5493  45330 104110 53280 -20 998940
 8984.8447  45290 102200 52950 -10 998860
 8985.1227  45260 100480 52500 -10 998570
 8985.3833  45250 99050 51890 -10 998310
 8985.6613  45260 97650 50920 -10 998140
 8985.9393  45280 96270 49630 -10 997820
 8986.2174  45280 94800 48010 -10 997690
 8986.4955  45220 93180 46210 -10 997350
 8986.7736  45240 91720 44470 -10 996880
 8987.0517  45170 90070 42740 -20 996560
 8987.3298  45230 88760 41260 -10 996480
 8987.5906  45180 87290 39840 -10 996480
 8987.8687  45120 85970 38540 -10 996540
 8988.1469  45150 85120 37510 -10 996630
 8988.4077  45150 84510 36590 -10 996770
 8988.6859  45120 84150 35730 -10 996670
 8988.9642  45040 83950 34910 -10 996770
 8989.2424  45140 84230 34220 -10 996970
 8989.5207  45090 84270 33340 -10 997200
 8989.799   45090 84380 32430 -10 997620
 8990.0773  45040 84280 31380 -10 998010
 8990.3382  45090 84250 30320 -10 998440
 8990.5991  45050 83890 29100 -10 999000
 8990.8949  45060 83540 27860 -10 999540
 8991.1733  44990 82960 26510 -10 999850
 8991.4342  45040 82570 25260 -10 1000000
 8991.7127  45000 81950 23930 -10 999990
 8991.9911  45000 81450 22680 -10 999990
 8992.2695  44970 80870 21460 -10 1000000
 8992.548   44910 80280 20310 -10 999990
 8992.8265  44970 79920 19300 -10 999990
 8993.0875  44950 79460 18340 -10 1000000
 8993.3661  44910 78950 17440 0 999990
 8993.6446  44860 78470 16640 -10 999500
 8993.9057  44890 78090 15950 -10 998820
 8994.1843  44830 77610 15330 0 998540
 8994.4629  44840 77160 14760 -10 998060
 8994.7415  44880 76770 14310 -10 997740
 8995.0201  44900 76330 13910 0 997440
 8995.2987  44800 75720 13570 -20 997230
 8995.5774  44760 75200 13340 0 997150
 8995.8386  44730 74770 13210 -10 997270
 8996.0999  44750 74430 13170 -10 997390
 8996.3786  44750 74090 13210 -10 997410
 8996.6573  44730 73740 13290 -10 997570
 8996.936   44640 73330 13420 -10 997820
 8997.2148  44640 73090 13600 0 997910
 8997.4936  44620 72840 13800 -10 998020
 8997.7724  44640 72720 14040 -10 998130
 8998.0512  44640 72560 14260 -10 998190
 8998.33    44600 72400 14490 0 998300
 8998.5914  44610 72310 14730 -10 998300
 8998.8528  44580 72210 14940 -10 998120
 8999.1317  44530 72060 15130 0 998120
 8999.4106  44520 71970 15300 -10 998120
 8999.6895  44500 71900 15440 -10 997950
 8999.9685  44470 71780 15540 -10 997740
 9000.2474  44430 71670 15590 -10 997700
 9000.5264  44430 71580 15610 0 997630
 9000.8054  44430 71530 15590 -10 997610
 9001.0844  44390 71430 15510 -10 998030
 9001.3459  44330 71290 15380 -10 998500
 9001.625   44240 71130 15190 -10 999020
 9001.9215  44110 70940 14960 -10 999330
 9002.1831  43930 70670 14660 0 999640
 9002.4622  43600 70200 14290 -10 999940
 9002.7413  43320 69810 13910 -10 999990
 9003.003   43470 70150 13660 -10 1000000
 9003.2821  43900 70950 13490 0 999990
 9003.5613  44110 71410 13250 -10 999990
 9003.8404  44230 71730 13010 -10 1000000
 9004.1022  44230 71860 12780 -10 999990
 9004.3814  44240 72000 12600 0 999990
 9004.6781  44230 72090 12470 -10 1000000
 9004.9399  44180 72130 12400 -10 999990
 9005.2017  44220 72290 12430 -10 999990
 9005.481   44190 72320 12480 0 1000000
 9005.7603  44170 72420 12620 -10 999990
 9006.0396  44140 72410 12770 -10 999990
 9006.3189  44120 72480 12980 -10 1000000
 9006.5983  44110 72530 13200 0 999990
 9006.8776  44110 72640 13470 -10 999990
 9007.157   44080 72660 13720 -10 1000000
 9007.4364  44100 72760 13980 -10 999990
 9007.7159  44060 72770 14210 -10 999990
 9007.9778  44050 72810 14440 -10 1000000
 9008.2398  44020 72810 14650 0 999990
 9008.5193  44010 72860 14840 -10 999990
 9008.7988  44000 72890 15020 -10 1000000
 9009.0783  43980 72900 15170 -10 999990
 9009.3578  43970 72920 15320 0 999990
 9009.6374  44000 73010 15490 -10 1000000
 9009.9169  43990 73020 15640 -10 999990
 9010.179   43930 72950 15770 -10 999990
 9010.4412  43940 72980 15940 -10 1000000
 9010.7208  43890 72940 16090 0 999530
 9011.0004  43920 73000 16270 -10 999010
 9011.2801  43920 73030 16440 -10 998780
 9011.5597  43890 73010 16600 -10 998710
 9011.8394  43870 73000 16740 0 998740
 9012.1191  43850 72990 16860 -10 998730
 9012.3988  43820 72970 16970 -10 998590
 9012.6786  43770 72900 17040 -10 998340
 9012.9408  43770 72970 17110 -10 998130
 9013.2031  43650 72810 17100 0 997900
 9013.4829  43450 72520 17070 -10 997840
 9013.7627  43200 72170 16970 -10 997770
 9014.0426  42850 71660 16840 0 997490
 9014.3224  42760 71570 16790 -10 997380
 9014.6023  43160 72330 16930 -10 997270
 9014.8821  43460 72940 17050 -10 997090
 9015.162   43600 73280 17070 -10 996900
 9015.442   43610 73400 17070 0 996970
 9015.7219  43660 73590 17050 -10 997260
 9015.9843  43660 73750 17040 -10 997490
 9016.2468  43670 73900 17020 -10 997530
 9016.5268  43630 73970 16960 0 997510
 9016.8068  43650 74120 16940 -10 997380
 9017.0868  43620 74240 16880 -10 997000
 9017.3668  43610 74380 16810 -10 996570
 9017.6469  43590 74500 16750 0 996240
 9017.927   43630 74710 16680 -10 995950
 9018.2071  43570 74790 16580 -10 995860
 9018.4872  43550 74880 16480 -10 995830
 9018.7498  43580 75070 16390 0 995690
 9019.0124  43570 75190 16290 -10 995710
 9019.2926  43520 75240 16150 -10 995760
 9019.5728  43470 75280 16020 -10 995730
 9019.853   43490 75450 15910 -10 995880
 9020.1332  43530 75620 15800 0 996120
 9020.4134  43490 75690 15660 -10 996350
 9020.6937  43540 75870 15570 -10 996560
 9020.9739  43470 75870 15420 -10 996690
 9021.2542  43530 76120 15330 -10 996970
 9021.517   43430 76030 15200 0 997250
 9021.7798  43380 76050 15080 -10 997460
 9022.0776  43380 76170 14980 -10 997740
 9022.358   43390 76270 14880 -10 997980
 9022.6208  43410 76430 14800 0 997950
 9022.9012  43380 76450 14700 -20 997980
 9023.1816  43470 76710 14630 -10 998110
 9023.4621  43410 76690 14520 0 998130
 9023.725   43370 76680 14400 -10 998160
 9024.0054  43360 76750 14310 -10 998260
 9024.3035  43310 76710 14190 -10 998340
 9024.5664  43280 76740 14090 -10 998310
 9024.8294  43320 76840 14000 -10 998190
 9025.1099  43300 76860 13900 -10 998100
 9025.3905  43320 76900 13810 -10 998250
 9025.671   43290 76890 13710 -10 998550
 9025.9516  43260 76860 13630 0 999040
 9026.2322  43240 76830 13560 -10 999630
 9026.5129  43320 76960 13510 -10 999980
 9026.7935  43220 76770 13430 -10 999990
 9027.0741  43220 76780 13390 0 1000000
 9027.3548  43260 76820 13370 -10 999990
 9027.618   43170 76650 13340 -10 999990
 9027.8811  43240 76720 13350 -10 1000000
 9028.1619  43210 76650 13370 -10 999990
 9028.4426  43150 76490 13380 -10 999990
 9028.7234  43140 76430 13410 0 1000000
 9029.0041  43140 76370 13460 -10 999990
 9029.2849  43180 76410 13550 -10 999990
 9029.5658  43180 76340 13620 -10 1000000
 9029.829   43060 76070 13670 0 999990
 9030.1099  43140 76180 13790 -10 999990
 9030.3907  43060 75950 13870 -10 1000000
 9030.6541  43050 75890 13960 -10 999990
 9030.9525  43030 75810 14080 -10 999990
 9031.2335  43090 75820 14200 0 1000000
 9031.4968  43080 75780 14330 -10 999990
 9031.7778  43020 75590 14430 -10 999990
 9032.0588  43050 75570 14560 -10 1000000
 9032.3398  42970 75390 14660 -10 999990
 9032.6208  43030 75430 14810 -10 999990
 9032.8842  43010 75350 14930 -10 999700
 9033.1477  43070 75400 15080 0 999680
 9033.4463  43010 75220 15180 -10 999800
 9033.7274  42940 75070 15280 -10 999970
 9033.9909  43060 75200 15430 -10 999990
 9034.2721  42910 74920 15490 0 999990
 9034.5532  42930 74900 15590 -10 1000000
 9034.8343  42920 74820 15680 -10 999990
 9035.1155  42970 74890 15790 -10 999990
 9035.3967  42890 74690 15830 0 1000000
 9035.6779  42930 74740 15910 -10 999990
 9035.9591  42880 74600 15960 0 999990
 9036.2228  42870 74560 16000 -10 1000000
 9036.4865  42870 74530 16050 -10 999990
 9036.7677  42870 74470 16090 0 999990
 9037.049   42840 74400 16120 -10 1000000
 9037.3303  42850 74370 16160 -10 999990
 9037.6117  42910 74460 16190 -10 999990
 9037.893   42860 74310 16190 -10 1000000
 9038.1744  42760 74110 16170 0 999990
 9038.4558  42760 74070 16170 -10 999990
 9038.7372  42790 74080 16190 -10 1000000
 9039.001   42720 73920 16160 -10 999990
 9039.2648  42730 73900 16140 -10 999990
 9039.5639  42740 73880 16130 -10 1000000
 9039.8453  42710 73770 16090 0 999990
 9040.1092  42740 73780 16070 -10 999990
 9040.3907  42720 73700 16040 -10 1000000
 9040.6723  42680 73580 15980 -10 999990
 9040.9538  42820 73760 15980 -10 999990
 9041.2354  42700 73510 15900 -10 1000000
 9041.5169  42670 73420 15830 -10 999990
 9041.7809  42710 73410 15790 -10 999990
 9042.0626  42700 73360 15740 -10 1000000
 9042.3442  42690 73250 15680 0 999990
 9042.6082  42670 73190 15630 -10 999990
 9042.8899  42690 73150 15590 0 1000000
 9043.1716  42660 73060 15540 -10 999990
 9043.4533  42630 72930 15470 -10 999990
 9043.735   42660 72920 15460 -10 1000000
 9044.0167  42620 72780 15400 0 999990
 9044.2809  42690 72860 15400 -10 999990
 9044.545   42700 72790 15390 -10 999200
 9044.8268  42650 72670 15350 -10 998490
 9045.1086  42630 72560 15330 0 998130
 9045.3905  42630 72510 15320 -10 997830
 9045.6723  42600 72380 15310 -10 997780
 9045.9542  42600 72310 15320 0 997940
 9046.236   42590 72230 15320 -10 998180
 9046.5179  42590 72170 15320 -10 998280
 9046.7999  42590 72090 15320 -10 998280
 9047.0818  42600 72050 15330 -10 998320
 9047.3637  42560 71920 15320 0 998380
 9047.6457  42610 71950 15340 -10 998610
 9047.9101  42570 71810 15310 -10 999020
 9048.1744  42550 71710 15290 0 999290
 9048.4565  42530 71620 15260 -10 999660
 9048.7385  42590 71650 15260 -10 999910
 9049.0206  42580 71590 15230 -10 999990
 9049.3026  42570 71530 15190 0 999990
 9049.5847  42520 71370 15130 -10 1000000
 9049.8668  42560 71390 15110 -10 999990
 9050.1313  42520 71290 15040 -10 999990
 9050.4135  42550 71300 15000 -10 1000000
 9050.6956  42490 71160 14940 -10 999990
 9050.9602  42480 71100 14880 0 999990
 9051.2424  42480 71080 14850 -10 1000000
 9051.5246  42490 71040 14780 -10 999990
 9051.8068  42520 71070 14760 -10 999990
 9052.0891  42490 70990 14710 -10 1000000
 9052.3714  42480 70930 14660 -10 999990
 9052.6536  42440 70850 14610 0 999990
 9052.936   42480 70900 14590 -10 1000000
 9053.2006  42470 70860 14560 -10 999990
 9053.4653  42490 70870 14550 -10 999990
 9053.7477  42440 70770 14510 -10 1000000
 9054.0301  42430 70760 14510 -10 999990
 9054.3125  42470 70820 14510 0 999990
 9054.5949  42440 70760 14490 -10 1000000
 9054.8773  42420 70720 14500 -10 999990
 9055.1598  42400 70710 14500 -10 999990
 9055.4422  42430 70740 14500 -10 1000000
 9055.7247  42440 70790 14520 0 999990
 9056.0072  42450 70810 14520 -10 999990
 9056.2721  42470 70860 14540 -10 1000000
 9056.5369  42510 70940 14540 -10 999990
 9056.8195  42460 70890 14520 -10 999990
 9057.1021  42480 70940 14530 0 1000000
 9057.3847  42500 70990 14530 -10 999990
 9057.6673  42510 71030 14520 -10 999630
 9057.9499  42460 70980 14480 0 998900
 9058.2325  42510 71100 14480 -10 998560
 9058.5152  42510 71130 14470 -10 998250
 9058.7979  42520 71180 14440 -10 997980
 9059.0629  42500 71170 14400 -10 997630
 9059.3456  42450 71130 14350 -10 997340
 9059.6284  42220 70770 14240 0 997350
 9059.8935  41820 70130 14070 -10 997380
 9060.1762  41610 69840 13950 -10 997380
 9060.459   41850 70280 14000 -10 997320
 9060.7418  42150 70810 14050 -10 997200
 9061.0246  42290 71110 14060 -10 997190
 9061.3075  42350 71220 14030 0 997190
 9061.5903  42360 71300 14000 -10 997110
 9061.8732  42410 71420 13990 -10 997020
 9062.1561  42420 71480 13950 0 996870
 9062.439   42420 71520 13920 -10 996710
 9062.7043  42430 71570 13900 -10 996550
 9062.9696  42400 71570 13860 -10 996520
 9063.2525  42380 71600 13830 0 996500
 9063.5355  42410 71670 13820 -10 996560
 9063.8185  42390 71680 13790 -10 996650
 9064.0838  42390 71720 13780 -10 996590
 9064.3669  42320 71660 13730 0 996620
 9064.6676  42220 71520 13680 -10 996810
 9064.933   42210 71550 13670 -10 996980
 9065.2161  42290 71730 13680 0 997090
 9065.4992  42370 71910 13690 -10 997260
 9065.7646  42380 71980 13680 -10 997520
 9066.0478  42420 72090 13670 -10 997780
 9066.3309  42430 72160 13670 0 998060
 9066.6141  42470 72270 13670 -10 998180
 9066.8973  42470 72330 13650 -10 998190
 9067.1805  42490 72420 13630 -10 998250
 9067.4638  42440 72410 13610 0 998490
 9067.747   42530 72610 13610 -10 998610
 9068.0303  42510 72640 13580 -10 998650
 9068.3136  42500 72680 13560 -10 998660
 9068.5792  42480 72710 13530 0 998680
 9068.8448  42490 72790 13510 -10 998890
 9069.1282  42470 72820 13470 -10 999210
 9069.4115  42460 72870 13440 -10 999350
 9069.6949  42440 72890 13400 -10 999540
 9069.9783  42490 73060 13390 0 999750
 9070.2617  42440 73040 13350 -10 999980
 9070.5452  42430 73080 13310 -10 1000000
 9070.8109  42430 73140 13290 -10 999990
 9071.0944  42450 73260 13250 0 999990
 9071.3778  42480 73350 13240 -10 1000000
 9071.6436  42430 73350 13200 -10 999990
 9071.9272  42430 73400 13170 -10 999990
 9072.2107  42410 73420 13140 -10 1000000
 9072.4942  42430 73520 13130 0 999990
 9072.7778  42380 73500 13090 -10 999990
 9073.0614  42420 73630 13100 -10 1000000
 9073.345   42400 73660 13080 0 999990
 9073.6109  42420 73750 13070 -10 999990
 9073.8946  42400 73780 13070 -10 1000000
 9074.1783  42460 73950 13090 0 999990
 9074.4442  42460 74010 13100 -20 999990
 9074.7279  42500 74120 13130 0 1000000
 9075.0116  42500 74190 13130 -10 999990
 9075.2954  42580 74400 13200 -10 999990
 9075.5791  42600 74460 13220 -10 1000000
 9075.8629  42610 74550 13260 0 999990
 9076.1467  42590 74580 13300 -20 999990
 9076.4305  42640 74700 13350 -10 1000000
 9076.7143  42640 74770 13410 0 999990
 9076.9804  42630 74800 13440 -10 999990
 9077.2466  42610 74820 13500 -10 1000000
 9077.5304  42630 74880 13560 -10 999990
 9077.8143  42630 74940 13630 -10 999990
 9078.0983  42660 75040 13700 -10 1000000
 9078.3822  42650 75080 13760 0 999990
 9078.6661  42670 75150 13840 -10 999990
 9078.9501  42720 75280 13930 -10 1000000
 9079.2341  42680 75260 13990 0 999990
 9079.5004  42710 75340 14090 -10 999990
 9079.7844  42710 75390 14160 -10 1000000
 9080.0684  42710 75420 14250 -10 999990
 9080.3347  42760 75550 14340 0 999990
 9080.6188  42770 75620 14430 -10 1000000
 9080.9029  42730 75580 14510 -10 999990
 9081.187   40720 72060 13900 0 999380
 9081.4712  45690 80910 15690 -10 999110
 9081.7553  47300 83800 16330 -10 999120
 9082.0217  47420 84050 16470 -10 998970
 9082.3059  47440 84120 16560 -10 998790
 9082.5901  47450 84160 16640 -10 998490
 9082.8566  47450 84210 16730 -10 998450
 9083.1408  47430 84200 16800 -10 998440
 9083.4251  47460 84310 16890 0 998240
 9083.7094  47470 84340 16970 -10 998050
 9083.9937  47480 84400 17040 -10 998110
 9084.278   47420 84320 17100 -10 998320
 9084.5623  47400 84310 17170 -10 998500
 9084.8467  47440 84410 17260 -10 998600
 9085.131   47400 84380 17310 -10 998660
 9085.4154  47440 84460 17390 -10 998750
 9085.6998  47400 84420 17450 0 998920
 9085.9665  47380 84410 17520 -10 999080
 9086.2331  47270 84250 17540 -10 999130
 9086.5176  47110 83970 17540 -10 999240
 9086.8021  46800 83450 17490 -10 999400
 9087.0865  46420 82780 17400 -10 999550
 9087.3711  46370 82720 17450 -10 999670
 9087.6378  46640 83220 17600 -10 999930
 9087.9046  46890 83670 17740 -10 999910
 9088.1891  46980 83870 17830 -10 999840
 9088.4737  47040 83990 17900 -10 999990
 9088.7583  47030 83980 17920 0 999670
 9089.0429  47090 84100 17980 -10 999550
 9089.3276  47090 84120 18010 -10 999510
 9089.6122  47090 84110 18030 0 999490
 9089.8969  47110 84170 18070 -20 999440
 9090.1816  47080 84120 18080 0 999280
 9090.4485  47030 84050 18080 -10 999070
 9090.7332  47000 83990 18090 -10 998960
 9091.0358  47040 84070 18130 -10 998750
 9091.3028  47070 84140 18170 -10 998400
 9091.5697  47030 84080 18180 -10 998220
 9091.8545  46960 83940 18190 -10 997960
 9092.1394  46960 83940 18230 -10 997700
 9092.4242  46930 83900 18260 -10 997450
 9092.709   46900 83840 18280 0 997330
 9092.9939  46870 83790 18320 -10 997560
 9093.2788  46930 83890 18400 -10 997710
 9093.5637  46900 83840 18450 -10 997740
 9093.8308  46890 83810 18510 0 997790
 9094.1158  46860 83750 18550 -20 997900
 9094.4008  46850 83730 18620 -10 998060
 9094.6679  46860 83730 18680 0 998160
 9094.9529  46830 83690 18750 -10 998300
 9095.2379  46810 83630 18810 -10 998430
 9095.523   46780 83550 18870 -10 998580
 9095.808   46740 83500 18940 -10 998710
 9096.0931  46750 83490 19010 0 998600
 9096.3782  46710 83410 19070 -10 998560
 9096.6455  46740 83450 19150 -10 998790
 9096.9128  46730 83430 19220 -10 998800
 9097.1979  46700 83350 19270 0 998810
 9097.4831  46710 83360 19340 -10 998980
 9097.7683  46680 83320 19400 -10 999090
 9098.0535  46640 83210 19420 -20 999150
 9098.3387  46620 83150 19480 -10 999170
 9098.6239  46610 83140 19520 -10 999250
 9098.9092  46640 83180 19580 -10 999100
 9099.1944  46610 83110 19600 0 999040
 9099.4797  46590 83060 19630 -10 998840
 9099.7472  46540 82950 19630 -10 998570
 9100.0325  46520 82900 19640 -10 998560
 9100.3179  46540 82940 19660 -10 998390
 9100.5854  46530 82890 19660 -10 998300
 9100.8708  46540 82900 19670 -10 998280
 9101.1562  46550 82910 19670 -10 998590
 9101.4416  46490 82780 19630 0 998900
 9101.727   46480 82740 19610 -10 999000
 9102.0125  46440 82660 19580 -20 999090
 9102.298   46450 82670 19550 -10 999100
 9102.5656  46420 82590 19520 0 999040
 9102.8511  46410 82560 19470 -10 998930
 9103.1366  46410 82560 19430 -10 998790
 9103.4043  46390 82500 19370 -10 998790
 9103.6899  46410 82510 19340 -10 998890
 9103.9755  46350 82400 19260 -10 998970
 9104.2611  46320 82330 19190 0 999120
 9104.5467  46300 82290 19130 -10 999360
 9104.8323  46290 82280 19060 -10 999610
 9105.1001  46320 82300 19020 -10 999920
 9105.3858  46280 82230 18930 -10 999990
 9105.6715  46270 82190 18860 0 999990
 9105.9393  46240 82130 18780 -10 1000000
 9106.225   46250 82140 18720 -10 999990
 9106.5108  46260 82170 18650 -10 999990
 9106.7965  46220 82070 18570 -10 1000000
 9107.0823  46190 82020 18480 -10 999990
 9107.3681  46170 81960 18410 0 999990
 9107.6539  46110 81850 18320 -20 1000000
 9107.9398  46100 81820 18240 0 999990
 9108.2256  46090 81800 18180 -10 999990
 9108.5115  46100 81800 18110 -10 1000000
 9108.7974  46070 81750 18040 -10 999990
 9109.0654  46060 81720 17960 -20 999990
 9109.3335  46000 81610 17890 0 1000000
 9109.6194  45990 81560 17810 -10 999990
 9109.9054  45990 81580 17760 -10 999990
 9110.1914  45970 81520 17690 -10 1000000
 9110.4774  45960 81510 17630 -10 999990
 9110.7634  45920 81420 17560 -10 999990
 9111.0494  45880 81350 17500 -10 1000000
 9111.3176  45850 81270 17430 -10 999990
 9111.5858  45890 81360 17410 0 999990
 9111.8719  45860 81290 17340 -10 1000000
 9112.158   45870 81310 17310 -10 999990
 9112.4441  45820 81210 17260 -10 999990
 9112.7302  45810 81200 17210 -10 1000000
 9113.0164  45780 81120 17160 -10 999990
 9113.3026  45760 81090 17120 -10 999990
 9113.5888  45750 81080 17090 -10 1000000
 9113.8571  45730 81040 17060 0 999990
 9114.1433  45670 80920 17020 -20 999990
 9114.4296  45670 80930 16990 0 1000000
 9114.7158  45630 80860 16960 -10 999990
 9115.02    45610 80820 16940 -10 999990
 9115.2884  45610 80810 16930 -10 1000000
 9115.5569  45680 80930 16940 -10 999990
 9115.8432  45650 80900 16930 -10 999990
 9116.1296  45640 80860 16910 -10 1000000
 9116.4159  45560 80740 16880 -10 999990
 9116.6844  45570 80750 16880 -10 999990
 9116.953   45520 80680 16870 -10 1000000
 9117.2573  45490 80620 16860 -10 999990
 9117.5437  45450 80560 16850 -10 999990
 9117.8123  45460 80570 16860 -10 1000000
 9118.0988  45400 80490 16840 -10 999990
 9118.3853  45350 80410 16840 0 999990
 9118.6718  45310 80330 16830 -10 1000000
 9118.9584  45330 80370 16840 -10 999990
 9119.2449  45280 80300 16820 -10 999990
 9119.5315  45250 80250 16830 -10 1000000
 9119.8181  45200 80170 16810 -10 999990
 9120.0868  45190 80150 16800 -10 999990
 9120.3734  45150 80100 16800 -10 1000000
 9120.678   45100 80010 16770 -10 999990
 9120.9647  45050 79930 16760 -10 999990
 9121.2335  45010 79880 16740 -10 999990
 9121.5023  44990 79820 16710 -10 999270
 9121.789   45070 80010 16750 -10 999350
 9122.0757  45160 80150 16760 0 999630
 9122.3625  45110 80080 16730 -10 999920
 9122.6313  45320 80430 16770 -10 999990
 9122.9181  45590 80940 16860 -10 1000000
 9123.2229  45600 80990 16830 -10 999990
 9123.5097  45500 80800 16760 -10 999990
 9123.7786  45460 80750 16710 0 1000000
 9124.0476  45350 80540 16620 -10 999990
 9124.3345  45210 80320 16520 -10 999990
 9124.6214  45050 80050 16400 -10 1000000
 9124.9083  44900 79780 16290 -10 999990
 9125.1953  44900 79780 16230 -10 999990
 9125.4822  44910 79840 16170 -10 1000000
 9125.7692  44890 79790 16090 -10 999990
 9126.0562  44810 79670 15990 -10 999990
 9126.3253  45010 80020 15980 -10 1000000
 9126.5944  45220 80420 15980 -10 999990
 9126.8814  46410 82540 16310 -10 999990
 9127.1685  47790 85010 16710 0 1000000
 9127.4556  49490 88020 17200 -20 999990
 9127.7427  50710 90210 17520 -10 999990
 9128.0298  52610 93560 18060 -10 999990
 9128.317   52430 93260 17890 -10 999990
 9128.5862  52800 93930 17900 -10 1000000
 9128.8554  56430 100390 19020 -10 1000000
 9129.1606  62320 110880 20900 -20 999990
 9129.4657  66930 119090 22340 -10 999990
 9129.753   69190 123110 23000 -10 999990
 9130.0223  70200 124930 23230 -10 999940
 9130.2916  70510 125500 23230 -20 999110
 9130.5789  70560 125630 23160 -10 998840
 9130.8662  70520 125580 23060 -20 998720
 9131.1535  70410 125390 22940 -10 998710
 9131.4229  70320 125270 22840 -20 998770
 9131.7103  70100 124900 22710 -10 998800
 9132.0156  70020 124800 22630 -10 999050
 9132.2851  69930 124640 22540 -20 999190
 9132.5725  69770 124390 22460 -10 999380
 9132.8599  69680 124270 22390 -20 999720
 9133.1294  69520 124010 22320 -10 999740
 9133.4169  69430 123870 22280 -20 999370
 9133.7044  69310 123670 22230 -10 999330
 9133.9919  69220 123560 22210 -20 999440
 9134.2794  69170 123510 22200 -10 999750
 9134.567   69040 123290 22150 -20 999880
 9134.8545  68970 123210 22150 -10 999990
 9135.1421  68820 122970 22130 -10 999990
 9135.4118  68710 122770 22100 -10 1000000
 9135.6814  68650 122730 22110 -20 999990
 9135.969   68610 122660 22130 -10 999990
 9136.2567  68480 122470 22120 -20 1000000
 9136.5444  68420 122400 22140 -10 999990
 9136.8321  68390 122370 22170 -10 999990
 9137.1198  68260 122170 22150 -20 1000000
 9137.3895  68190 122090 22170 -10 1000000
 9137.6593  68140 122020 22200 -10 999990
 9137.965   68000 121810 22210 -20 999990
 9138.2528  67950 121740 22230 -10 999990
 9138.5227  67880 121660 22260 -10 999990
 9138.8105  67780 121520 22280 -20 999990
 9139.0983  67720 121440 22300 -10 1000000
 9139.3862  67640 121350 22340 -10 999990
 9139.6741  67500 121120 22340 -20 999990
 9139.962   67460 121090 22390 -10 1000000
 9140.2499  67410 121030 22430 -10 999990
 9140.5378  67310 120910 22460 -20 999750
 9140.8078  67270 120850 22500 -10 999200
 9141.0777  67170 120730 22540 -10 999220
 9141.3657  67090 120620 22580 -20 998950
 9141.6537  67060 120600 22630 -10 998530
 9141.9417  66980 120500 22680 -10 998130
 9142.2298  66860 120310 22720 -20 997970
 9142.5179  66740 120130 22740 -10 997950
 9142.8059  66710 120120 22820 -10 998020
 9143.094   66620 120000 22860 -20 997860
 9143.3822  66490 119800 22900 -10 997820
 9143.6523  66510 119870 22990 -10 998030
 9143.9224  66440 119790 23060 -20 998260
 9144.2106  66340 119630 23110 -10 998240
 9144.4988  66280 119570 23200 -10 998040
 9144.787   66180 119430 23260 -10 997920
 9145.0752  66020 119190 23300 -20 997910
 9145.3635  65950 119090 23390 -10 997930
 9145.6517  65990 119200 23520 -10 997990
 9145.94    65930 119120 23610 -20 997710
 9146.2283  65810 118940 23700 -10 997460
 9146.5166  65820 119000 23820 -10 997310
 9146.787   65730 118890 23910 -10 997150
 9147.0573  65610 118700 23990 -20 997140
 9147.3457  65550 118630 24110 -10 997500
 9147.6341  65470 118530 24210 -20 997580
 9147.9225  65440 118520 24330 -10 997540
 9148.2109  65340 118370 24420 -20 997420
 9148.4993  65290 118290 24550 -10 997280
 9148.7878  65210 118200 24660 -20 997250
 9149.0763  65150 118150 24780 -10 997210
 9149.3468  65060 118010 24880 -10 997310
 9149.6173  64980 117900 24990 -20 997600
 9149.9238  64870 117730 25080 -10 997770
 9150.2124  64820 117680 25210 -20 997890
 9150.4829  64720 117560 25320 -10 998120
 9150.7715  64630 117400 25420 -20 998280
 9151.0601  64590 117370 25550 -10 998270
 9151.3488  64580 117380 25680 -10 998280
 9151.6374  64430 117170 25780 -20 998430
 9151.9261  64330 117000 25880 0 998560
 9152.2148  64310 117020 26030 -20 998550
 9152.4854  64200 116850 26140 -10 998580
 9152.7561  64180 116850 26300 -20 998610
 9153.0629  64040 116630 26390 -10 998640
 9153.3517  64020 116650 26550 -20 998480
 9153.6224  63960 116570 26680 -10 998100
 9153.9112  63790 116310 26760 -10 997610
 9154.2     63730 116230 26900 -20 997270
 9154.4888  63580 115990 26990 -10 996960
 9154.7777  63460 115810 27100 -20 996700
 9155.0666  63220 115420 27160 -10 996500
 9155.3555  62900 114870 27160 -10 996330
 9155.6263  62380 113950 27090 -20 996330
 9155.8972  61790 112910 26980 -10 996380
 9156.1861  61400 112240 26950 -10 996460
 9156.4751  61660 112760 27210 -10 996580
 9156.7641  62390 114130 27670 -20 996810
 9157.0531  62850 114990 28000 -10 996980
 9157.3421  62910 115130 28140 -20 997270
 9157.6311  62910 115160 28270 -10 997420
 9157.9202  62880 115150 28380 -10 997840
 9158.2093  62830 115090 28460 -20 998130
 9158.4803  62720 114930 28520 -10 998210
 9158.7513  62660 114830 28590 -10 998210
 9159.0405  62640 114830 28680 -10 998260
 9159.3296  62580 114770 28730 -20 998320
 9159.6188  62490 114630 28770 -10 998430
 9159.908   62390 114460 28800 -10 998760
 9160.1972  62340 114420 28850 -20 999000
 9160.4864  62270 114330 28870 -10 999170
 9160.7756  62190 114210 28880 -10 999160
 9161.0649  62140 114140 28880 -10 999340
 9161.3361  62110 114120 28900 -20 999430
 9161.6254  61960 113900 28850 -10 999550
 9161.9147  61920 113830 28840 -10 999570
 9162.186   61880 113800 28830 -10 999460
 9162.4753  61840 113770 28800 -20 999540
 9162.7647  61730 113590 28740 -10 999530
 9163.0541  61710 113590 28700 -10 999560
 9163.3435  61590 113410 28610 -10 999400
 9163.6329  61530 113300 28540 -10 999120
 9163.9224  61470 113230 28450 -20 999040
 9164.2118  61410 113150 28380 -10 998760
 9164.4832  61300 112970 28270 -20 998770
 9164.7546  61320 113030 28200 -10 998800
 9165.0441  61230 112890 28100 -20 998810
 9165.3337  61160 112780 27980 -10 998470
 9165.6232  61050 112620 27840 -10 998030
 9165.9128  60980 112520 27730 -20 997760
 9166.2024  60910 112390 27590 -10 997540
 9166.492   60840 112320 27480 -10 997470
 9166.7635  60770 112220 27330 -10 997330
 9167.0532  60750 112210 27230 -20 997060
 9167.3429  60620 112000 27060 -10 996790
 9167.6144  60590 111970 26920 -10 996690
 9167.9041  60500 111830 26780 -10 996640
 9168.1939  60420 111720 26640 -20 996430
 9168.4836  60280 111480 26450 -10 996350
 9168.7734  60220 111410 26310 -10 996370
 9169.0631  60150 111290 26170 -20 996200
 9169.3529  60170 111380 26070 -10 995980
 9169.6427  60050 111160 25890 -10 995850
 9169.9326  60000 111100 25780 -10 995600
 9170.2043  59880 110920 25630 -20 995480
 9170.4942  59730 110650 25440 -10 995280
 9170.7841  59660 110580 25330 -10 995130
 9171.0559  59570 110410 25180 -20 995210
 9171.3458  59410 110150 25030 -10 995270
 9171.6357  59030 109480 24780 -10 995270
 9171.9257  58660 108800 24540 -20 995310
 9172.2157  58120 107830 24250 -10 995370
 9172.5057  57690 107090 23990 -10 995340
 9172.7957  57750 107200 23950 -10 995290
 9173.0857  58370 108380 24130 -10 995250
 9173.3577  58910 109390 24290 -10 995380
 9173.6296  59090 109760 24310 -20 995510
 9173.9197  59060 109740 24250 -10 995740
 9174.2098  59010 109660 24160 -10 995990
 9174.5     58950 109560 24090 -10 996360
 9174.7901  58890 109490 24030 -10 996710
 9175.0803  58810 109370 23950 -20 997010
 9175.3705  58760 109280 23890 -10 997330
 9175.6607  58670 109130 23820 -10 997470
 9175.9327  58600 109050 23760 -10 997490
 9176.2048  58560 108980 23720 -10 997500
 9176.4951  58530 108950 23670 -10 997550
 9176.7854  58450 108790 23620 -10 997430
 9177.0757  58280 108520 23550 -20 997390
 9177.366   58330 108640 23540 -10 997320
 9177.6563  58330 108640 23530 -10 997370
 9177.9467  58250 108530 23490 -10 997420
 9178.2371  58200 108430 23460 -10 997460
 9178.5275  58130 108310 23420 -10 997330
 9178.8179  58050 108190 23390 -20 997320
 9179.1083  57950 108020 23350 -10 997420
 9179.3806  57880 107900 23320 -10 997390
 9179.6529  57800 107750 23300 -10 997280
 9179.9434  57820 107830 23310 -20 997390
 9180.2339  57770 107730 23300 -10 997340
 9180.5244  57650 107500 23260 -10 997450
 9180.8149  57580 107400 23250 -10 997590
 9181.0873  57520 107290 23230 -10 997820
 9181.3779  57480 107240 23240 -10 997900
 9181.6867  57420 107110 23220 -10 998100
 9181.9591  57360 107040 23230 -10 998450
 9182.2316  57280 106890 23210 -10 998770
 9182.5222  57280 106900 23230 -10 998880
 9182.8129  57200 106760 23220 -10 998720
 9183.1036  57120 106630 23210 -20 998790
 9183.3943  57060 106510 23200 -10 999150
 9183.685   56980 106370 23190 -10 999440
 9183.9758  56900 106230 23180 -10 999660
 9184.2665  56880 106210 23190 -10 999840
 9184.5573  56860 106180 23190 -10 999690
 9184.83    56790 106060 23190 -20 999810
 9185.1208  56710 105920 23180 -10 999970
 9185.4116  56670 105840 23180 -20 999990
 9185.6843  56590 105720 23160 -10 999990
 9185.9752  56480 105500 23130 -10 1000000
 9186.2661  56420 105400 23110 -10 999990
 9186.557   56390 105350 23120 -10 999990
 9186.8479  56330 105260 23110 -10 1000000
 9187.1388  56300 105200 23100 -20 999990
 9187.4298  56190 105020 23070 -10 999990
 9187.7208  56090 104820 23030 -10 1000000
 9187.9936  56060 104790 23040 -10 999990
 9188.2665  56050 104760 23040 -10 999990
 9188.5575  55990 104670 23020 -10 1000000
 9188.8486  55900 104520 23000 -10 999990
 9189.1396  55910 104530 23010 -10 999990
 9189.4307  55850 104430 22980 -20 1000000
 9189.7219  55750 104240 22960 -10 999990
 9190.013   55670 104120 22930 -10 999990
 9190.3041  55660 104100 22930 -10 1000000
 9190.5953  55570 103950 22920 -10 999990
 9190.8865  55560 103930 22910 -10 999990
 9191.1777  55460 103770 22880 -20 1000000
 9191.4508  55410 103670 22870 -10 999990
 9191.7238  55340 103550 22850 -10 999990
 9192.0151  55320 103530 22860 -10 1000000
 9192.3063  55200 103300 22820 -10 999990
 9192.5977  55160 103250 22830 -20 999990
 9192.889   55120 103180 22810 -10 1000000
 9193.1803  55040 103050 22800 -10 999990
 9193.4717  55000 102980 22810 -10 999990
 9193.7631  54980 102940 22810 -10 1000000
 9194.0362  54930 102870 22810 -10 999990
 9194.3094  54860 102750 22800 -10 999990
 9194.6009  54810 102670 22810 -20 1000000
 9194.8923  54700 102480 22780 -10 999990
 9195.1838  54610 102320 22760 -10 999990
 9195.4753  54620 102330 22800 -10 1000000
 9195.7668  54530 102190 22780 -10 999990
 9196.0583  54450 102070 22770 -10 999990
 9196.3499  54460 102070 22800 -10 1000000
 9196.6414  54380 101940 22790 -10 999990
 9196.933   54350 101900 22800 -10 999990
 9197.2064  54270 101750 22780 -20 1000000
 9197.4798  54250 101750 22800 -10 999990
 9197.7714  54150 101580 22780 -10 999990
 9198.0631  54080 101440 22770 -10 1000000
 9198.3548  54000 101300 22750 -10 999990
 9198.6465  53930 101200 22730 -10 999990
 9198.92    53890 101140 22730 -10 1000000
 9199.2117  53900 101160 22740 -10 999990
 9199.5035  53820 101010 22700 -10 999990
 9199.7952  53750 100910 22680 -10 1000000
 9200.087   53700 100830 22640 -10 999990
 9200.3788  53640 100720 22620 -10 999990
 9200.6707  53600 100680 22590 -10 1000000
 9200.9443  53540 100550 22550 -10 999990
 9201.2361  53470 100450 22500 -20 999990
 9201.528   53430 100370 22440 -10 1000000
 9201.8199  53380 100300 22410 -10 999990
 9202.1118  53350 100260 22370 -10 999990
 9202.4038  53290 100160 22300 -10 1000000
 9202.6957  53210 100020 22230 -10 999990
 9202.9877  53050 99720 22120 -20 999990
 9203.2615  53090 99840 22100 -10 1000000
 9203.5352  53060 99770 22040 -10 999990
 9203.8273  52980 99660 21950 -10 999990
 9204.1193  52940 99590 21880 -20 1000000
 9204.4114  52880 99470 21790 -10 999990
 9204.7035  52810 99370 21710 -10 999990
 9204.9956  52810 99380 21650 -10 1000000
 9205.2877  52740 99260 21560 -10 999990
 9205.5799  52660 99130 21470 -10 999990
 9205.872   52620 99070 21390 -10 1000000
 9206.1459  52630 99110 21330 -10 999990
 9206.4382  52590 99020 21260 -10 999990
 9206.7304  52520 98940 21170 -10 1000000
 9207.0043  52490 98880 21110 -10 999050
 9207.2966  52360 98670 20990 -10 999010
 9207.5889  52330 98610 20940 -10 999200
 9207.8812  52290 98540 20860 -10 999300
 9208.1735  52260 98510 20820 -10 999220
 9208.4658  52250 98510 20780 -20 999260
 9208.7582  52210 98450 20720 -10 999120
 9209.0506  52140 98340 20650 -10 998940
 9209.3247  52060 98190 20590 -10 998740
 9209.5988  52010 98110 20550 -10 998630
 9209.8912  51940 98000 20480 -10 998500
 9210.1837  51920 97970 20470 -20 998200
 9210.4762  51890 97930 20420 0 997970
 9210.7686  51900 97960 20420 -10 997880
 9211.0611  51850 97890 20380 -20 997990
 9211.3537  51780 97770 20350 -10 997960
 9211.6279  51630 97520 20280 -10 997710
 9211.9022  51570 97410 20260 -10 997460
 9212.1948  51630 97540 20270 -10 997420
 9212.4874  51570 97440 20250 -10 997450
 9212.78    51570 97460 20250 -10 997630
 9213.0726  51500 97350 20230 -10 997560
 9213.3653  51390 97140 20190 -10 997460
 9213.6579  51420 97230 20200 -10 997510
 9213.9506  51340 97080 20190 -10 997760
 9214.2251  51290 97020 20170 -10 997960
 9214.5178  51260 96990 20180 -20 998050
 9214.8288  51240 96940 20170 0 998160
 9215.1216  51180 96870 20160 -10 998230
 9215.3961  51140 96810 20160 -20 998270
 9215.6706  51090 96730 20160 -10 998300
 9215.9634  51070 96700 20160 -10 998120
 9216.2563  50980 96560 20140 -10 997870
 9216.5491  50930 96480 20140 -10 997800
 9216.842   50840 96340 20110 -10 997740
 9217.1349  50860 96380 20150 -10 997750
 9217.4278  50890 96450 20180 -10 997740
 9217.7207  50760 96250 20150 -20 997720
 9218.0137  50610 95950 20100 -10 997630
 9218.2884  50710 96190 20190 -10 997660
 9218.563   50650 96090 20180 -10 997690
 9218.8561  50610 96020 20190 -10 997810
 9219.1491  50650 96130 20230 -10 998280
 9219.4421  50570 95980 20230 -20 998840
 9219.7352  50500 95880 20230 0 999390
 9220.0283  50500 95910 20270 -20 999750
 9220.3214  50420 95770 20270 0 999990
 9220.5962  50310 95590 20270 -20 1000000
 9220.871   50310 95590 20300 -10 999990
 9221.1825  50270 95550 20320 -10 999990
 9221.4757  50250 95510 20350 -10 1000000
 9221.7506  50150 95360 20360 -10 999990
 9222.0438  50110 95300 20370 -10 999990
 9222.337   50090 95290 20420 -10 1000000
 9222.6303  50060 95240 20440 -10 999990
 9222.9236  49980 95120 20460 -10 999990
 9223.2169  49930 95020 20490 -10 1000000
 9223.5102  49930 95080 20530 -10 999990
 9223.8035  49950 95120 20600 -10 999990
 9224.0969  49860 94970 20610 -10 1000000
 9224.3719  49830 94930 20650 -10 999990
 9224.6469  49830 94950 20700 -10 999630
 9224.9403  49670 94660 20700 -10 999140
 9225.2338  49680 94710 20760 -10 999200
 9225.5272  49690 94750 20830 -10 999130
 9225.8207  49690 94780 20900 -10 998950
 9226.1142  49620 94650 20920 -10 999100
 9226.4077  49680 94810 21020 -10 998920
 9226.6828  49590 94650 21050 -10 998510
 9226.9764  49490 94480 21080 -10 998370
 9227.2699  49460 94410 21120 -10 998570
 9227.5452  49360 94270 21140 -10 998390
 9227.8388  49330 94250 21210 -20 998020
 9228.1324  49260 94120 21250 -10 997910
 9228.426   49310 94230 21330 -10 997730
 9228.7197  49260 94160 21380 -10 997550
 9229.0133  49290 94240 21450 -10 997630
 9229.307   49190 94090 21490 -10 997630
 9229.6007  49180 94080 21550 -10 997650
 9229.8761  49190 94110 21620 -10 997720
 9230.1515  49210 94170 21700 -10 997870
 9230.4453  49140 94070 21730 -10 997850
 9230.7391  48990 93800 21730 -10 997860
 9231.0329  48960 93750 21770 -10 997950
 9231.3267  48970 93800 21850 -10 997990
 9231.6205  48920 93730 21890 0 998070
 9231.9144  48980 93840 21980 -10 998380
 9232.2083  48790 93520 21950 -10 998640
 9232.5022  48950 93860 22110 -10 998820
 9232.7777  48840 93660 22110 -10 998980
 9233.0717  48640 93300 22080 -10 998990
 9233.3656  48750 93540 22200 -10 999010
 9233.6412  48730 93530 22260 -10 999100
 9233.9352  48700 93500 22300 -20 999040
 9234.2292  48750 93600 22380 -10 998930
 9234.5233  48720 93570 22420 -10 998840
 9234.8173  48610 93390 22450 -10 998590
 9235.1114  48540 93270 22450 -10 998540
 9235.3871  48490 93180 22480 0 998600
 9235.6812  48470 93180 22520 -20 998540
 9235.9937  48360 92970 22540 -10 998540
 9236.2695  48380 93060 22590 0 998400
 9236.5452  48420 93140 22650 -10 998540
 9236.8394  48400 93140 22700 -20 998750
 9237.1336  48400 93140 22740 -10 998740
 9237.4278  48370 93110 22760 -10 998760
 9237.7221  48280 92980 22750 -10 998710
 9238.0163  48300 93010 22800 -10 998700
 9238.3106  48230 92910 22810 -10 998780
 9238.6049  48130 92760 22790 -10 998890
 9238.8992  48130 92760 22820 -10 999100
 9239.1936  48170 92860 22880 -10 999410
 9239.4695  48130 92820 22880 -10 999640
 9239.7455  48110 92770 22900 -20 999780
 9240.0399  48030 92660 22880 0 999820
 9240.3343  47990 92610 22890 -20 999980
 9240.6287  47970 92570 22900 0 1000000
 9240.9232  47800 92290 22840 -20 999990
 9241.2177  47820 92330 22850 0 999990
 9241.5122  47860 92430 22900 -10 1000000
 9241.7883  47850 92450 22900 -10 999990
 9242.0644  47800 92380 22880 -20 999990
 9242.3773  47760 92310 22870 -10 1000000
 9242.6719  47770 92370 22890 -10 999990
 9242.9481  47760 92340 22880 0 999990
 9243.2427  47590 92060 22810 -10 1000000
 9243.5373  47670 92220 22850 -10 999990
 9243.8319  47630 92180 22830 -10 999990
 9244.1266  47660 92230 22840 -10 1000000
 9244.4213  47690 92340 22860 -10 999990
 9244.7159  47570 92110 22790 -10 999990
 9244.9922  47540 92080 22770 -10 1000000
 9245.2686  47540 92110 22780 -10 999990
 9245.5633  47530 92090 22760 -10 999990
 9245.8581  47410 91890 22710 -10 1000000
 9246.1529  47460 91990 22720 -10 999990
 9246.4477  47460 92020 22710 -10 999990
 9246.7425  47410 91950 22690 -10 1000000
 9247.0374  47440 92020 22710 -10 999990
 9247.3138  47390 91950 22660 -10 999990
 9247.5903  47340 91880 22650 -10 1000000
 9247.9036  47280 91770 22620 -10 999990
 9248.1985  47220 91690 22580 -10 999990
 9248.475   47280 91810 22610 -10 1000000
 9248.77    47210 91700 22570 -10 999990
 9249.065   47200 91700 22570 -10 999990
 9249.36    47090 91510 22520 -20 1000000
 9249.655   47120 91570 22530 -10 999990
 9249.95    47120 91610 22540 -10 999990
 9250.2451  47000 91400 22490 -10 1000000
 9250.5217  46920 91240 22440 -10 999990
 9250.8168  47010 91460 22490 -10 999990
 9251.1119  47080 91600 22540 -10 1000000
 9251.3886  47060 91590 22520 -20 999990
 9251.6838  46860 91200 22430 0 999990
 9251.9789  47040 91600 22530 -10 1000000
 9252.2741  47220 91940 22610 -10 999990
 9252.5693  47140 91810 22590 -20 999990
 9252.8646  47020 91620 22530 -10 1000000
 9253.1598  47050 91670 22560 -10 999990
 9253.4551  46980 91570 22520 0 999990
 9253.7504  47020 91640 22550 -20 1000000
 9254.0272  47000 91630 22530 -10 999990
 9254.3041  46970 91590 22540 -10 999460
 9254.5994  46860 91410 22470 0 999280
 9254.8948  46940 91570 22520 -20 999170
 9255.1902  46880 91490 22500 0 999050
 9255.4856  46950 91630 22530 -10 998870
 9255.781   46890 91540 22500 -10 998900
 9256.0764  46930 91630 22520 -10 999050
 9256.3534  46830 91460 22480 -10 998990
 9256.6489  46740 91290 22430 -10 998660
 9256.9444  46760 91370 22450 -10 998310
 9257.2214  46810 91470 22470 -10 998040
 9257.517   46800 91450 22460 -20 998060
 9257.8125  46760 91420 22440 -10 998100
 9258.1081  46660 91220 22390 -10 998080
 9258.4037  46690 91300 22410 -10 998020
 9258.6993  46650 91250 22390 -10 998080
 9258.9949  46560 91090 22350 -10 997780
 9259.2906  46740 91470 22440 -10 997590
 9259.5862  46710 91410 22420 -10 997490
 9259.8634  46720 91450 22420 -10 997490
 9260.1592  46690 91430 22420 -10 997340
 9260.4549  46630 91310 22380 -10 997530
 9260.7321  46610 91300 22370 -10 997760
 9261.0279  46510 91130 22320 -10 998120
 9261.3237  46510 91150 22320 -10 998540
 9261.6195  47180 92450 22640 -10 998930
 9261.9153  47430 92990 22760 -10 999360
 9262.2111  47450 93030 22760 -10 999530
 9262.507   47440 93040 22760 -10 999810
 9262.7844  47350 92870 22710 -10 999920
 9263.0803  47410 93010 22740 -10 999740
 9263.3762  47420 93060 22740 -10 999550
 9263.6536  47410 93040 22730 -10 999440
 9263.9496  47330 92910 22690 -10 999190
 9264.2456  47350 92960 22680 -10 998940
 9264.5416  47300 92910 22670 -20 998690
 9264.8376  47260 92830 22630 -10 998910
 9265.1336  47220 92770 22610 -10 999100
 9265.4112  47190 92730 22590 -10 999140
 9265.7072  47130 92640 22540 -10 999140
 9266.0218  47150 92690 22550 -10 999020
 9266.2994  47010 92440 22480 -20 999120
 9266.577   46860 92160 22390 0 999460
 9266.8732  46850 92140 22380 -20 999550
 9267.1693  46980 92440 22430 -10 999570
 9267.4655  47010 92500 22440 -10 999600
 9267.7617  47100 92710 22480 -10 999980
 9268.058   47030 92580 22430 -10 999990
 9268.3542  46940 92420 22380 -10 999990
 9268.6505  46940 92450 22370 -10 1000000
 9268.9282  46920 92440 22350 -10 999990
 9269.206   46890 92390 22330 -10 999990
 9269.5023  46830 92290 22290 -10 1000000
 9269.7987  46810 92280 22280 -10 999990
 9270.095   46790 92250 22260 -10 999990
 9270.3914  46880 92450 22280 -10 1000000
 9270.6878  46840 92400 22270 -10 999990
 9270.9842  46760 92250 22210 -10 999990
 9271.2806  46720 92180 22190 -10 1000000
 9271.5586  46680 92140 22160 -10 999990
 9271.8365  46660 92110 22140 -10 999990
 9272.133   46570 91970 22100 -10 1000000
 9272.4295  46530 91900 22070 -10 999990
 9272.726   46680 92210 22140 -10 999990
 9273.0226  46700 92260 22130 -10 999200
 9273.3191  46610 92100 22080 -10 998830
 9273.6157  46580 92070 22070 -10 998530
 9273.9123  46560 92050 22060 -10 998080
 9274.209   46510 91970 22030 -20 997670
 9274.5056  46560 92060 22040 -10 997380
 9274.7837  46520 92000 22020 -10 997010
 9275.0804  46410 91830 21970 -10 996510
 9275.3771  46420 91850 21960 -10 996280
 9275.6553  46370 91760 21940 -10 996420
 9275.952   46250 91550 21870 -10 996450
 9276.2488  46310 91690 21920 -10 996580
 9276.5456  46260 91600 21880 -10 996460
 9276.8424  46250 91610 21870 -10 996410
 9277.1206  46210 91540 21850 -10 996450
 9277.4175  46150 91450 21830 -10 996360
 9277.7329  46200 91540 21840 -10 996270
 9278.0112  46160 91500 21830 -10 996160
 9278.2895  46160 91530 21820 -10 996220
 9278.5864  45980 91170 21740 -10 996160
 9278.8834  46110 91460 21800 -10 996050
 9279.1803  46170 91590 21830 -10 996040
 9279.4773  46090 91440 21780 -20 995990
 9279.7743  46060 91410 21780 0 996100
 9280.0713  45910 91120 21700 -10 996150
 9280.3683  46150 91620 21810 -20 996260
 9280.6654  46270 91880 21870 0 995990
 9280.9439  46180 91710 21830 -10 995550
 9281.2224  46150 91680 21810 -20 995410
 9281.5195  46120 91620 21800 -10 995450
 9281.8166  46050 91520 21770 -10 995610
 9282.1138  46050 91520 21770 -10 995760
 9282.4109  46020 91480 21760 -10 995980
 9282.7081  45910 91270 21700 -10 996070
 9283.0053  46400 92270 21940 -10 996300
 9283.3025  46320 92110 21900 -10 996450
 9283.5812  46310 92120 21900 -10 996580
 9283.8599  46240 92020 21870 -20 996730
 9284.1757  45760 91080 21640 -10 996860
 9284.473   45920 91400 21710 -10 997010
 9284.7703  47190 93960 22320 -10 997150
 9285.0677  48470 96500 22920 -10 997320
 9285.3464  48820 97230 23080 -10 997290
 9285.6438  48810 97220 23090 -10 997250
 9285.9412  48820 97270 23090 -10 997250
 9286.2386  48760 97160 23060 -10 997270
 9286.5361  48740 97130 23050 -10 997170
 9286.8335  48690 97040 23020 -20 997200
 9287.1124  48650 97000 23010 0 997090
 9287.4099  48600 96910 23000 -20 996910
 9287.7074  48580 96880 22970 -10 996520
 9287.9863  48550 96840 22960 -10 996040
 9288.2839  48410 96590 22900 -10 995600
 9288.5814  48340 96440 22850 -10 995300
 9288.879   48290 96390 22840 -10 995050
 9289.1766  48340 96480 22870 -10 994860
 9289.4743  48310 96450 22850 -10 994710
 9289.7533  48190 96220 22790 -10 994630
 9290.0324  47960 95770 22690 -10 994830
 9290.3487  47950 95760 22670 -10 994860
 9290.6464  47760 95400 22590 -10 994820
 9290.9255  47810 95550 22630 -10 994760
 9291.2232  47950 95820 22680 -10 994680
 9291.521   48080 96080 22750 -10 994600
 9291.8188  48030 96010 22720 -10 994540
 9292.1165  48050 96070 22730 -20 994550
 9292.4144  47960 95910 22700 -10 994510
 9292.7122  47940 95890 22690 -10 994350
 9292.9914  47940 95890 22690 -20 994150
 9293.2707  47800 95630 22610 -10 993740
 9293.5686  47760 95580 22610 -10 993580
 9293.8665  47730 95530 22600 -10 993520
 9294.1644  47790 95660 22620 -10 993550
 9294.4624  47720 95530 22590 -10 993500
 9294.7604  47670 95470 22570 -10 993240
 9295.0584  47640 95400 22560 -10 992930
 9295.3564  47680 95520 22580 -10 992470
 9295.6544  47600 95370 22540 -20 992190
 9295.9525  47590 95370 22540 0 992010
 9296.2505  47520 95250 22510 -10 992080
 9296.5486  47550 95320 22520 -20 992190
 9296.8281  47520 95290 22520 -10 992280
 9297.1076  47540 95340 22530 -10 992340
 9297.4057  47410 95090 22470 -10 992380
 9297.7039  47390 95050 22450 -10 992760
 9298.0021  47290 94880 22420 -10 993150
 9298.3003  47280 94870 22420 -10 993440
 9298.5985  47340 95010 22440 -10 993540
 9298.8968  47260 94860 22430 -10 993490
 9299.1764  47150 94660 22370 -10 993570
 9299.456   47060 94450 22320 -30 993760
 9299.7543  47110 94610 22370 -10 994060
 9300.0526  47000 94400 22330 -10 994230
 9300.351   46840 94090 22260 -10 994100
 9300.6493  46550 93540 22140 -20 994060
 9300.9477  46280 92990 22020 -10 994230
 9301.2461  46270 93010 22030 0 994300
 9301.5445  46590 93630 22190 -10 994340
 9301.843   46790 94080 22310 -10 994250
 9302.1414  46770 94030 22320 -20 994000
 9302.4399  46820 94170 22360 0 994010
 9302.7384  46730 94000 22330 -10 994240
 9303.0183  46750 94050 22370 -20 994160
 9303.2981  46760 94100 22400 -10 994160
 9303.5967  46800 94180 22430 0 994400
 9303.8953  46820 94250 22470 -20 994650
 9304.1939  46780 94160 22460 0 994900
 9304.4925  46740 94130 22480 -20 994970
 9304.7911  46560 93760 22400 0 994890
 9305.0898  46610 93890 22450 -10 994930
 9305.3884  46650 93970 22500 -20 994920
 9305.6685  46580 93850 22480 0 994900
 9305.9485  46570 93840 22500 -10 994820
 9306.2472  46330 93370 22420 -10 994510
 9306.546   46510 93770 22530 -10 994440
 9306.8447  46510 93770 22550 -10 994650
 9307.1435  46520 93820 22590 -20 994860
 9307.4423  46580 93950 22650 -10 995130
 9307.7225  46450 93700 22610 0 995380
 9308.0213  46450 93710 22630 -20 995460
 9308.3389  46360 93560 22620 -10 995430
 9308.6377  46480 93810 22700 -10 995220
 9308.918   46430 93730 22710 0 995150
 9309.1982  46380 93660 22710 -20 995080
 9309.4971  46310 93510 22700 -10 994910
 9309.7961  46280 93490 22720 -10 994980
 9310.0951  46290 93510 22750 -10 995020
 9310.3941  46230 93410 22750 -10 994980
 9310.6931  46130 93230 22730 -10 995170
 9310.9921  46070 93120 22730 -20 995280
 9311.2912  45900 92780 22670 0 995400
 9311.5903  45780 92550 22630 -10 995630
 9311.8894  45990 93010 22780 -20 995870
 9312.1698  45900 92830 22750 -10 996110
 9312.4502  46070 93200 22860 -10 996410
 9312.7494  46380 93820 23040 -10 996590
 9313.0486  46370 93850 23080 -10 996570
 9313.3478  46270 93650 23040 -10 996450
 9313.647   46230 93600 23060 -10 996530
 9313.9462  46240 93640 23090 -10 996610
 9314.2455  46270 93700 23140 -10 996580
 9314.526   46120 93410 23090 -10 996320
 9314.8066  46190 93590 23150 -10 996060
 9315.1059  46060 93340 23130 -20 995850
 9315.4053  46190 93600 23210 0 995920
 9315.7046  46170 93600 23230 -10 996010
 9316.004   46120 93500 23240 -10 996120
 9316.3034  46100 93490 23260 -10 996250
 9316.6028  46070 93430 23270 -10 996540
 9316.9022  45940 93210 23240 -10 997100
 9317.1829  46000 93340 23300 -10 997460
 9317.4637  46000 93340 23330 -10 997690
 9317.7632  46010 93400 23350 -10 997710
 9318.0627  45960 93310 23370 -10 997770
 9318.3622  45910 93210 23350 -10 997960
 9318.6617  45950 93340 23410 -10 998260
 9318.9613  45860 93160 23390 -10 998270
 9319.2609  45850 93160 23400 -10 998310
 9319.5605  45820 93110 23420 -10 998200
 9319.8601  45890 93290 23480 -10 998040
 9320.1597  45860 93220 23490 -10 997950
 9320.4594  45780 93080 23470 -10 998070
 9320.7591  45670 92880 23430 -20 997930
 9321.0401  45700 92940 23460 -10 997820
 9321.321   45660 92910 23480 -10 997910
 9321.6208  45680 92950 23500 -10 998110
 9321.9205  45720 93040 23540 0 998190
 9322.2203  45700 93020 23540 -20 998480
 9322.5201  45570 92750 23490 0 998620
 9322.8199  45430 92510 23440 -20 998430
 9323.1198  45530 92740 23510 0 998140
 9323.4196  45690 93070 23600 -20 997980
 9323.7195  45720 93160 23640 -10 997710
 9324.0007  45790 93290 23690 -10 997330
 9324.2818  45660 93050 23630 -10 997170
 9324.5818  45510 92760 23560 -10 996990
 9324.8817  45450 92660 23540 -10 997000
 9325.1817  45380 92530 23520 -10 996970
 9325.4817  45470 92750 23570 -10 996990
 9325.7817  45450 92690 23570 -10 997250
 9326.0817  45420 92690 23570 -20 997580
 9326.363   45460 92750 23600 -10 997990
 9326.6631  45280 92420 23520 -10 998390
 9326.9819  45440 92760 23600 -10 998610
 9327.2633  45450 92800 23620 -10 998770
 9327.5447  45450 92820 23630 -10 998950
 9327.8448  45300 92520 23550 -10 999040
 9328.145   45440 92820 23630 -10 999150
 9328.4452  45480 92940 23670 -10 999340
 9328.7454  45430 92840 23640 -10 999600
 9329.0456  45460 92930 23670 -10 999410
 9329.3458  45320 92650 23600 -10 999400
 9329.6273  45400 92840 23660 -10 999470
 9329.9089  45480 93020 23700 -10 999490
 9330.2092  45560 93190 23760 -10 999570
 9330.5095  45520 93160 23760 -10 999700
 9330.8098  45500 93110 23740 -10 999960
 9331.1102  45420 92970 23720 -10 999990
 9331.4106  45460 93060 23750 -10 1000000
 9331.711   45370 92900 23710 -10 999990
 9332.0114  45290 92760 23680 -10 999990
 9332.2931  45390 92990 23750 -20 1000000
 9332.5935  45250 92700 23690 -10 999990
 9332.894   45180 92570 23660 -10 999990
 9333.1945  45600 93480 23910 -10 1000000
 9333.495   45690 93660 23970 -10 999990
 9333.7768  45860 94030 24070 -10 999990
 9334.0773  45820 93960 24060 -10 1000000
 9334.3779  45700 93750 24030 -10 999990
 9334.6785  45820 93990 24100 -10 999990
 9334.9791  45830 94030 24120 -10 1000000
 9335.2798  45740 93880 24100 -20 999990
 9335.5804  45780 93980 24140 -10 999990
 9335.8811  45800 94020 24160 -10 1000000
 9336.1818  45870 94180 24230 -10 999990
 9336.4637  45770 94010 24190 -10 999990
 9336.7645  45590 93650 24120 -20 1000000
 9337.0652  45690 93880 24200 0 999990
 9337.3472  45570 93630 24160 -10 999990
 9337.648   45530 93590 24170 -20 1000000
 9337.9488  45370 93270 24100 -10 999990
 9338.2496  45420 93420 24170 -10 999990
 9338.5505  45580 93730 24270 -10 1000000
 9338.8514  45500 93610 24250 -10 999990
 9339.1523  45500 93620 24290 -10 999990
 9339.4344  45480 93590 24290 -10 1000000
 9339.7165  45440 93550 24310 -20 999990
 9340.0174  45410 93500 24320 0 999990
 9340.3184  45310 93300 24290 -10 1000000
 9340.6194  45280 93270 24310 -20 999990
 9340.9204  45340 93420 24360 0 999990
 9341.2214  45330 93400 24390 -10 1000000
 9341.5225  45330 93420 24410 -10 999990
 9341.8047  45310 93400 24430 -10 999990
 9342.1058  45150 93080 24370 -10 1000000
 9342.4069  45110 93030 24370 -20 999990
 9342.6893  45060 92930 24380 -10 999990
 9342.9904  45160 93170 24460 -10 999580
 9343.2916  45100 93070 24440 -10 999250
 9343.5928  45120 93110 24490 -10 999190
 9343.894   45120 93130 24500 -10 999050
 9344.1952  45030 92970 24470 -10 998850
 9344.4776  45020 92970 24490 -10 998870
 9344.7789  45230 93430 24630 -10 998960
 9345.0802  45210 93400 24640 -10 998990
 9345.3626  45200 93390 24650 -10 999160
 9345.6639  45250 93520 24700 -10 999320
 9345.9653  45230 93490 24690 -10 999360
 9346.2667  45070 93170 24630 -10 999610
 9346.568   45300 93690 24770 -10 999790
 9346.8694  45240 93570 24750 -10 999780
 9347.1709  45230 93570 24740 -10 999830
 9347.4723  45300 93740 24800 -10 999990
 9347.7738  45250 93640 24770 -20 999790
 9348.0752  45130 93420 24720 -10 999690
 9348.3579  45070 93320 24690 -10 999480
 9348.6594  45090 93390 24700 -10 999290
 9348.961   45050 93320 24690 -10 999190
 9349.2437  45110 93450 24720 -10 999170
 9349.5453  45090 93420 24710 -10 999370
 9349.8469  45020 93290 24670 -10 999570
 9350.1485  45020 93330 24680 -10 999330
 9350.4501  44970 93240 24650 -20 999310
 9350.7518  44830 92950 24570 -10 999370
 9351.0535  45100 93530 24720 -10 999420
 9351.3363  45140 93650 24750 -10 999360
 9351.6192  45130 93630 24740 -10 999090
 9351.9209  45120 93640 24730 -10 998830
 9352.2226  45040 93480 24690 -10 998680
 9352.5244  45160 93770 24770 -20 998550
 9352.8262  45100 93640 24730 0 998410
 9353.128   45090 93670 24730 -20 998140
 9353.4299  45120 93740 24740 -10 997880
 9353.7317  45160 93850 24780 -10 997800
 9354.0147  45050 93630 24720 -10 997730
 9354.2978  45100 93740 24750 -10 997630
 9354.6185  45090 93760 24760 -10 997720
 9354.9205  45030 93640 24720 -10 997850
 9355.2036  45030 93680 24730 -10 997970
 9355.5055  45020 93660 24720 -10 998170
 9355.8075  45020 93670 24730 -10 998300
 9356.1095  45060 93800 24780 -10 998350
 9356.4116  44960 93590 24720 -10 998440
 9356.7136  44890 93460 24680 -10 998460
 9357.0157  45010 93740 24770 -10 998570
 9357.3178  45090 93910 24810 -10 998560
 9357.601   45190 94140 24860 -10 998460
 9357.8843  45090 93960 24830 -20 998190
 9358.2053  45040 93850 24790 0 998180
 9358.5075  44800 93380 24680 -10 998380
 9358.7908  45030 93890 24800 -20 998610
 9359.093   45160 94170 24870 -10 998990
 9359.3952  45150 94180 24890 -10 999290
 9359.6975  44980 93840 24790 -10 999390
 9359.9997  45080 94050 24830 -10 999430
 9360.302   45340 94620 25000 -10 999130
 9360.6043  45170 94290 24910 -10 998870
 9360.8878  45280 94530 24970 -10 998640
 9361.1712  45320 94630 24990 -10 998470
 9361.4736  45380 94770 25030 -10 998460
 9361.776   45280 94580 24980 -10 998690
 9362.0784  45290 94640 24980 -10 998940
 9362.3808  45270 94580 24980 -10 999040
 9362.6833  45190 94470 24940 -10 999020
 9362.9857  45270 94640 24980 -10 998950
 9363.2882  45010 94110 24840 -10 998840
 9363.5907  45310 94760 25010 -10 998630
 9363.8743  45380 94930 25050 -10 998570
 9364.158   45250 94670 24980 -10 998500
 9364.4605  45270 94740 25000 -20 998410
 9364.7631  45280 94760 25000 -10 998400
 9365.0657  45230 94680 24980 -10 998350
 9365.3683  45290 94840 25020 0 997910
 9365.671   45290 94830 25010 -10 997670
 9365.9737  45270 94830 25010 -10 997920
 9366.2574  45120 94520 24920 -10 998120
 9366.5412  45220 94750 24990 -10 998240
 9366.8628  45080 94490 24920 -20 998350
 9367.1656  45120 94560 24930 -10 998300
 9367.4494  45250 94870 25010 -10 998120
 9367.7522  45160 94720 24970 -10 997860
 9368.055   45000 94370 24880 -10 997540
 9368.3578  45220 94870 25000 -10 997310
 9368.6607  45420 95290 25120 -10 997180
 9368.9635  45400 95290 25120 0 997040
 9369.2475  45380 95250 25100 -20 996870
 9369.5504  45290 95080 25060 -10 996830
 9369.8533  45260 95040 25040 -10 996710
 9370.1373  45190 94910 25010 -10 996960
 9370.4403  45110 94750 24960 -10 997310
 9370.7433  45230 95040 25030 -10 997430
 9371.0463  45260 95100 25060 -10 997520
 9371.3493  45310 95230 25080 -10 997650
 9371.6523  45260 95150 25050 -10 997910
 9371.9554  45250 95150 25060 -10 998170
 9372.2585  45250 95170 25060 -10 998410
 9372.5426  45240 95150 25050 -10 998600
 9372.8268  45380 95470 25130 -10 998440
 9373.1489  45370 95480 25140 -10 998340
 9373.471   45280 95300 25090 -10 998490
 9373.7552  45240 95230 25060 -10 998620
 9374.0395  45190 95130 25050 -10 998790
 9374.3427  45260 95310 25080 -10 998800
 9374.6459  45240 95270 25080 -10 998840
 9374.9492  45230 95280 25080 -10 998970
 9375.2525  45220 95260 25070 -10 999070
 9375.5558  45160 95170 25040 -10 999170
 9375.8401  45120 95070 25020 -10 999230
 9376.1245  44940 94750 24930 -10 999200
 9376.4279  44960 94790 24940 -10 999180
 9376.7312  44910 94700 24900 -20 999260
 9377.0346  44930 94760 24930 -10 998990
 9377.3381  44970 94880 24950 -10 998940
 9377.6415  44820 94570 24880 -10 999130
 9377.9449  44710 94370 24810 -10 999390
 9378.2484  44600 94130 24760 -10 999600
 9378.5519  44440 93820 24670 -10 999790
 9378.8554  44120 93170 24500 -10 1000000
 9379.14    44380 93720 24650 -20 999990
 9379.4436  44220 93420 24570 -10 999990
 9379.7471  44410 93830 24660 -10 1000000
 9380.0318  44210 93410 24570 -10 999420
 9380.3354  44010 93010 24450 -10 999080
 9380.639   44180 93390 24540 -10 998980
 9380.9427  46110 97450 25620 -10 998850
 9381.2274  48500 102530 26950 -10 998700
 9381.5121  49710 105110 27630 -10 998710
 9381.8348  50040 105840 27830 -20 998840
 9382.1385  50080 105920 27840 -10 998930
 9382.4233  50020 105830 27810 -10 998760
 9382.746   49990 105780 27820 -10 998480
 9383.0498  49940 105690 27780 -10 998230
 9383.3347  49880 105590 27750 -20 998100
 9383.6385  49800 105440 27710 -10 997830
 9383.9423  49810 105480 27720 -10 997660
 9384.2462  49710 105280 27670 -10 997730
 9384.5501  49590 105050 27600 -10 998000
 9384.854   49510 104910 27560 -20 998400
 9385.158   49580 105060 27610 -10 998800
 9385.4429  49450 104820 27540 -10 998990
 9385.7279  49590 105120 27620 -10 999330
 9386.0319  49520 105000 27580 -20 999670
 9386.3359  49430 104830 27550 0 999850
 9386.6399  49440 104870 27550 -20 999920
 9386.944   49440 104890 27560 -10 1000000
 9387.2481  49310 104640 27500 -10 999950
 9387.5522  49260 104550 27470 -10 999840
 9387.8373  49190 104410 27440 -10 999960
 9388.1224  49150 104340 27420 -20 999990
 9388.4265  49160 104400 27450 -10 999990
 9388.7307  49110 104290 27410 -10 1000000
 9389.0349  49170 104450 27460 -10 999990
 9389.3391  49140 104390 27440 -10 999990
 9389.6433  49090 104320 27420 -10 1000000
 9389.9476  49010 104150 27390 -10 999990
 9390.2519  49010 104200 27400 -10 999400
 9390.5562  48990 104180 27380 -20 999070
 9390.8415  48940 104070 27370 -10 999060
 9391.1458  48910 104030 27350 -10 999140
 9391.4501  48860 103950 27340 -10 999200
 9391.7545  48900 104050 27360 -20 999390
 9392.0589  48920 104110 27390 -10 999620
 9392.3443  48860 104010 27360 -10 999750
 9392.6487  48770 103840 27330 -10 999710
 9392.9532  48760 103820 27310 -10 999820
 9393.2576  48710 103770 27310 -20 999780
 9393.5621  48750 103830 27320 -10 999510
 9393.8666  48650 103670 27280 -10 999450
 9394.1712  48630 103620 27270 -10 999510
 9394.4757  48600 103570 27270 -10 999470
 9394.7613  48580 103580 27280 -10 999490
 9395.0468  48590 103590 27270 -10 999510
 9395.3514  48650 103750 27320 -10 999640
 9395.6561  48590 103640 27290 -10 999640
 9395.9607  48570 103600 27280 -20 999500
 9396.2654  48500 103490 27250 -10 999460
 9396.5701  48460 103410 27250 -10 999480
 9396.8748  48350 103210 27190 -10 999390
 9397.1795  48410 103330 27220 -10 999420
 9397.4843  48320 103170 27200 -10 999330
 9397.77    48320 103200 27190 -20 999150
 9398.0748  48380 103360 27240 -10 998810
 9398.3796  48330 103250 27220 -10 998420
 9398.6654  48270 103150 27210 -10 998320
 9398.9702  48240 103110 27200 -20 998310
 9399.2751  48270 103190 27210 -10 998310
 9399.58    48270 103180 27230 -10 998290
 9399.8849  48250 103200 27230 -20 998370
 9400.1898  48240 103180 27240 0 998320
 9400.4948  48140 102970 27190 -20 998180
 9400.7998  48040 102800 27140 -10 997990
 9401.1048  48060 102840 27170 -10 997840
 9401.3907  48100 102980 27210 -10 997790
 9401.6767  48110 102990 27220 -20 997760
 9401.9817  48010 102800 27170 -10 997570
 9402.2868  48070 102940 27230 -10 997320
 9402.5919  48080 102980 27240 -20 997280
 9402.897   47930 102680 27180 0 997110
 9403.2021  47890 102620 27150 -20 996910
 9403.5073  47830 102500 27140 -10 996990
 9403.7934  47790 102440 27140 -10 997000
 9404.0795  47870 102620 27190 -10 996890
 9404.3847  47810 102500 27170 -20 996900
 9404.6899  47800 102520 27190 -10 997050
 9404.9952  47730 102370 27160 -10 997150
 9405.3005  47800 102550 27220 -10 997100
 9405.6058  47830 102640 27250 -10 997080
 9405.892   47750 102480 27230 -10 996830
 9406.1973  47690 102350 27200 -10 996790
 9406.5217  47610 102220 27180 -20 996700
 9406.8271  47700 102420 27250 -10 996950
 9407.1134  47650 102340 27250 -10 997100
 9407.3997  47630 102300 27250 -10 997090
 9407.7052  47600 102270 27250 -20 997110
 9408.0106  47550 102170 27240 -10 997150
 9408.3161  47560 102220 27270 -10 997080
 9408.6216  47530 102170 27270 -20 997010
 9408.9271  47530 102190 27290 -10 996870
 9409.2326  47510 102180 27300 -10 996860
 9409.5382  47530 102220 27320 -10 996960
 9409.8247  47530 102250 27360 -20 997020
 9410.1303  47460 102100 27320 0 997210
 9410.455   47360 101900 27290 -20 997350
 9410.7415  47430 102060 27340 -10 997380
 9411.0281  47390 102010 27350 -10 997570
 9411.3337  47350 101940 27350 0 997630
 9411.6394  47330 101910 27350 -20 997450
 9411.9451  47330 101920 27380 0 997420
 9412.2509  47340 101960 27410 -20 997320
 9412.5566  47290 101900 27410 -10 997310
 9412.8624  47250 101800 27400 -10 997300
 9413.1491  47180 101680 27380 -10 997370
 9413.4549  47170 101680 27400 -10 997330
 9413.7798  47230 101800 27460 -10 997280
 9414.0666  47130 101640 27430 -10 997220
 9414.3533  47130 101640 27460 -10 997170
 9414.6592  47140 101670 27490 -10 996980
 9414.9651  47130 101680 27500 -10 996790
 9415.2711  47080 101590 27500 -10 996440
 9415.577   47040 101530 27490 -10 996140
 9415.883   47070 101590 27530 -10 996090
 9416.189   47060 101600 27550 -10 996050
 9416.495   47020 101530 27560 -10 996030
 9416.7819  46990 101480 27550 -20 996170
 9417.0688  47100 101750 27640 -10 996080
 9417.3749  46950 101440 27580 -10 996000
 9417.681   46910 101350 27570 -10 995980
 9417.9871  46780 101100 27530 -10 996080
 9418.2933  46860 101290 27590 -10 996290
 9418.5994  46870 101320 27620 -10 996610
 9418.9056  46930 101490 27680 -10 996670
 9419.2118  46880 101380 27660 -10 996580
 9419.4989  46850 101350 27660 -10 996760
 9419.8051  46800 101270 27670 -10 996960
 9420.1113  46740 101130 27640 -20 996960
 9420.3985  46780 101240 27690 -10 997020
 9420.7048  46720 101140 27680 -10 997250
 9421.0111  46700 101090 27670 -10 997190
 9421.3174  46790 101330 27760 -10 997210
 9421.6238  46750 101240 27750 -10 997270
 9421.9302  46720 101200 27750 -20 997480
 9422.2174  46630 101030 27720 0 997460
 9422.5047  46590 100980 27710 -10 997380
 9422.8303  46600 100980 27730 -10 997350
 9423.1559  46560 100940 27720 -10 997280
 9423.4432  46510 100830 27710 -10 997240
 9423.7305  46580 101010 27760 -10 997160
 9424.0371  46490 100840 27730 -10 997380
 9424.3436  46540 100950 27770 -10 997420
 9424.6501  46380 100630 27680 -10 997550
 9424.9376  46480 100840 27760 -10 997710
 9425.2442  46430 100790 27750 -20 997790
 9425.5699  46460 100850 27790 -10 997850
 9425.8574  46480 100930 27810 -10 997950
 9426.1641  46500 100970 27830 -10 998050
 9426.4708  46470 100930 27820 -10 998050
 9426.7583  46440 100890 27820 -10 998150
 9427.065   46400 100800 27810 -10 998280
 9427.3717  46340 100690 27780 -10 998330
 9427.6785  46210 100420 27720 -10 998130
 9427.9853  46300 100650 27780 -10 997890
 9428.2921  46280 100630 27790 -20 997740
 9428.5989  46280 100630 27800 -10 997720
 9428.8866  46340 100780 27830 -10 997740
 9429.1742  46210 100520 27780 -10 997620
 9429.4811  46240 100600 27800 -10 997470
 9429.788   46250 100660 27820 -10 997360
 9430.0949  46240 100630 27810 -20 997380
 9430.4019  46180 100540 27810 -10 997360
 9430.7088  46160 100500 27790 -10 997370
 9431.0158  46210 100650 27840 -10 997630
 9431.3228  43470 94690 26200 -10 997740
 9431.6299  49970 108870 30130 -20 997890
 9431.9369  50930 110970 30720 -10 998120
 9432.2248  51050 111250 30800 -10 998330
 9432.5127  51070 111300 30830 -20 998410
 9432.8198  50930 111030 30750 -10 998250
 9433.1269  50870 110900 30720 -10 998010
 9433.434   50840 110880 30720 -10 997680
 9433.7412  50900 111030 30770 -20 997480
 9434.0484  50850 110920 30740 -10 997510
 9434.3556  50800 110850 30730 -10 997580
 9434.6628  50850 110960 30770 -10 997760
 9434.97    50830 110960 30760 -20 997840
 9435.2581  50800 110900 30770 -10 997760
 9435.5654  50780 110890 30760 -20 997920
 9435.8727  50810 110980 30790 -10 998140
 9436.1608  50820 111020 30810 -10 998180
 9436.4682  50820 111020 30820 -10 998250
 9436.7755  50770 110960 30810 -20 998300
 9437.0829  50690 110770 30770 -10 998110
 9437.3903  50620 110650 30730 -10 998050
 9437.6977  50500 110420 30670 -20 998110
 9438.0052  50450 110310 30660 -10 998220
 9438.3127  50400 110230 30640 -20 998320
 9438.6009  50530 110530 30730 0 998420
 9438.8892  50630 110780 30810 -20 998470
 9439.1967  50560 110630 30760 -10 998380
 9439.5043  50570 110680 30800 -20 998270
 9439.8118  50470 110480 30740 -10 997920
 9440.1194  50500 110560 30770 -10 997430
 9440.427   50490 110560 30780 -20 996990
 9440.7347  50440 110480 30770 -10 996790
 9441.0423  50470 110550 30800 -10 996650
 9441.35    50480 110580 30810 -10 996600
 9441.6577  50470 110600 30830 -10 996550
 9441.9462  50490 110660 30850 -10 996500
 9442.2347  50330 110320 30770 -10 996580
 9442.5424  50420 110560 30840 -10 996790
 9442.8502  50360 110420 30810 -20 996850
 9443.158   50310 110350 30810 -10 996940
 9443.4658  50360 110490 30850 -10 997010
 9443.7736  50360 110490 30860 -10 997170
 9444.0815  50280 110360 30830 -20 997220
 9444.3701  50230 110250 30820 -10 997170
 9444.678   50160 110120 30780 -10 997000
 9444.9859  50230 110310 30850 -10 996740
 9445.2746  50130 110080 30800 -20 996550
 9445.5825  50230 110330 30880 -10 996280
 9445.8905  50190 110270 30870 -10 995910
 9446.1985  50100 110060 30830 -10 995600
 9446.5065  50120 110170 30870 -10 995430
 9446.8146  50080 110050 30850 -20 995200
 9447.1226  50000 109950 30830 -10 995210
 9447.4307  50050 110030 30870 -10 995080
 9447.7388  50110 110200 30930 -10 994950
 9448.0469  50040 110070 30900 -20 994740
 9448.3358  50060 110150 30940 -10 994640
 9448.6247  50090 110210 30970 -10 994620
 9448.9328  49950 109930 30890 -20 994670
 9449.241   49930 109900 30910 -10 994580
 9449.5493  49900 109860 30910 -10 994340
 9449.8575  49880 109820 30910 -10 994430
 9450.1658  50000 110120 31000 -20 994770
 9450.4548  49950 110040 31000 -10 995120
 9450.7438  49880 109880 30960 -10 995580
 9451.0521  49880 109920 30990 -20 995780
 9451.3604  49800 109770 30960 0 995860
 9451.6688  49800 109770 30980 -20 996090
 9451.9772  49880 109970 31040 -10 996420
 9452.2856  49810 109840 31030 -10 996550
 9452.594   49820 109860 31050 -10 996700
 9452.9024  49840 109940 31080 -20 996860
 9453.1916  49780 109820 31060 -10 996750
 9453.5001  49670 109620 31030 -10 996580
 9453.8279  49670 109620 31030 -20 996510
 9454.1171  49680 109670 31060 -10 996510
 9454.4064  49650 109610 31050 -10 996270
 9454.715   49650 109630 31090 -10 995830
 9455.0235  49600 109530 31060 -10 995600
 9455.3321  49630 109630 31110 -20 995420
 9455.6408  49640 109680 31130 -10 995550
 9455.9494  49670 109760 31160 -10 995870
 9456.2581  49570 109560 31110 -20 995940
 9456.5668  49580 109580 31140 -10 995850
 9456.8755  49530 109500 31130 -10 995590
 9457.1842  49500 109460 31120 -10 995230
 9457.4929  49300 109060 31020 -10 994840
 9457.7824  49540 109580 31170 -20 994790
 9458.0719  49540 109590 31190 -10 994880
 9458.3807  49320 109140 31070 -10 995100
 9458.6895  49390 109310 31140 -10 995220
 9458.9984  49300 109140 31090 -20 995160
 9459.3072  49350 109250 31140 -10 994940
 9459.6161  49220 108990 31060 -10 994860
 9459.925   49210 109000 31080 -10 994940
 9460.2147  49160 108900 31060 -10 995180
 9460.5043  49350 109330 31190 -10 995480
 9460.8133  49330 109310 31190 -20 995950
 9461.1223  49270 109180 31160 -10 996280
 9461.4313  49230 109140 31160 -10 996550
 9461.7403  49190 109060 31140 -10 996740
 9462.0494  49140 108970 31120 -10 996900
 9462.3584  49130 108960 31120 -10 997050
 9462.6675  49110 108950 31130 -20 997090
 9462.9766  49010 108740 31070 -10 996870
 9463.2858  49090 108930 31140 -10 996750
 9463.5949  49030 108840 31110 -10 996600
 9463.9041  48960 108660 31060 -10 996630
 9464.194   48820 108400 31010 -10 996680
 9464.4839  48950 108710 31090 -10 996710
 9464.7931  48920 108640 31090 -10 996890
 9465.1023  48930 108690 31090 -20 997140
 9465.4116  48910 108670 31100 -10 997160
 9465.7209  48960 108780 31140 -20 997200
 9466.0302  48840 108550 31090 -10 997180
 9466.3396  48780 108440 31050 -10 996940
 9466.6296  48730 108350 31040 -10 996840
 9466.939   48760 108440 31070 -20 997040
 9467.2484  48750 108420 31080 -10 996980
 9467.5385  48670 108270 31040 -10 996930
 9467.8479  48660 108280 31050 -10 997100
 9468.1574  48680 108320 31060 -20 997370
 9468.4668  48690 108380 31090 -10 997410
 9468.7763  48670 108340 31090 -10 997280
 9469.0859  48570 108130 31040 -10 997280
 9469.3761  48550 108110 31040 -20 997210
 9469.6856  48520 108090 31040 -10 996870
 9469.9952  48530 108100 31050 -10 996650
 9470.2855  48480 108020 31040 -10 996630
 9470.5951  48420 107900 31010 -20 996540
 9470.9047  48400 107880 31020 -10 996160
 9471.2144  48470 108050 31060 -10 995860
 9471.5241  48450 108020 31060 -10 995440
 9471.8338  48340 107810 31020 -10 995190
 9472.1435  48360 107850 31030 -20 995040
 9472.4339  48260 107690 30990 -10 995000
 9472.7437  48140 107400 30930 -10 995030
 9473.0728  48150 107460 30940 -20 995120
 9473.3632  48210 107610 30990 -10 995110
 9473.6537  48150 107490 30970 -10 994920
 9473.9636  48230 107700 31040 -10 994820
 9474.2734  48180 107580 31010 -10 994830
 9474.5833  48170 107590 31020 -10 994750
 9474.8932  48160 107610 31030 -20 994610
 9475.2032  48030 107310 30960 -10 994440
 9475.4937  48050 107370 30980 -10 994440
 9475.8037  48030 107360 30980 -20 994490
 9476.1137  47960 107230 30940 0 994750
 9476.4043  47880 107070 30910 -20 995150
 9476.7337  47950 107250 30960 -10 995280
 9477.0438  47890 107120 30930 -10 995510
 9477.3345  47760 106840 30850 -10 995440
 9477.6446  47820 107020 30920 -10 995320
 9477.9547  47740 106840 30870 -20 995330
 9478.2648  47620 106590 30800 -10 995330
 9478.575   47700 106810 30860 -10 995560
 9478.8658  47700 106800 30860 -20 995850
 9479.176   47650 106740 30860 -10 996040
 9479.4862  47730 106910 30910 -10 996230
 9479.7964  47630 106720 30850 -20 996440
 9480.1261  47660 106810 30890 -10 996550
 9480.417   47480 106410 30780 -10 996540
 9480.7079  47560 106630 30830 -20 996490
 9481.0182  47530 106560 30820 -10 996520
 9481.3285  47550 106640 30850 -10 996560
 9481.6389  47470 106480 30800 -10 996570
 9481.9299  47410 106350 30770 -10 996440
 9482.2403  47360 106270 30750 -10 996340
 9482.5507  47380 106340 30770 -10 996360
 9482.8418  47360 106310 30770 -10 996230
 9483.1522  47290 106160 30730 -10 996080
 9483.4627  47280 106160 30730 -20 995870
 9483.7732  47280 106180 30740 0 995660
 9484.0837  47260 106170 30730 -20 995400
 9484.3943  47150 105920 30670 -10 995360
 9484.7048  47150 105940 30670 -20 995410
 9485.0154  47040 105740 30630 -10 995660
 9485.326   47070 105800 30630 -10 995890
 9485.6173  47050 105790 30640 -10 995860
 9485.9279  47080 105860 30660 -10 995730
 9486.258   47020 105750 30620 -10 995580
 9486.5493  46860 105400 30540 -20 995530
 9486.8406  46920 105560 30580 -10 995420
 9487.1513  46910 105550 30570 -10 995300
 9487.462   46880 105530 30570 -10 994920
 9487.7728  46920 105600 30590 -10 994780
 9488.0836  46810 105400 30540 -10 995100
 9488.375   46770 105310 30510 -10 995370
 9488.6858  46770 105320 30510 -20 995430
 9488.9967  46690 105180 30480 -10 995740
 9489.2881  46730 105270 30500 -10 995870
 9489.599   46630 105070 30440 -10 996080
 9489.9099  46620 105070 30450 -10 996110
 9490.2209  46570 105000 30420 -10 996130
 9490.5318  46540 104910 30400 -20 995980
 9490.8428  46380 104590 30300 -10 995990
 9491.1538  46490 104860 30390 -10 996090
 9491.4648  46450 104800 30360 -20 996140
 9491.7759  46250 104360 30240 -10 996200
 9492.0675  46310 104510 30290 -10 996290
 9492.3591  46340 104600 30310 -10 996310
 9492.6702  46400 104750 30350 -10 996220
 9492.9814  46350 104670 30330 -20 996020
 9493.2925  46340 104650 30330 -10 995940
 9493.6037  46260 104490 30280 -10 995920
 9493.9148  46210 104400 30250 -10 995900
 9494.2261  46210 104400 30260 -10 995810
 9494.5373  46120 104220 30210 -10 995690
 9494.8291  46110 104230 30220 -20 995380
 9495.1403  46020 104050 30150 -10 995110
 9495.4516  46030 104090 30170 -10 995040
 9495.7629  45980 103970 30140 -20 994940
 9496.0743  45990 104040 30150 -10 995110
 9496.3662  45950 103950 30140 -10 995160
 9496.6775  45940 103960 30130 -10 995400
 9496.9889  45930 103940 30130 -10 995550
 9497.3003  45890 103870 30110 -20 995580
 9497.5923  45880 103860 30110 -10 995540
 9497.9037  45910 103940 30140 -10 995450
 9498.2347  45860 103880 30100 -10 995410
 9498.5462  45810 103770 30090 -10 995230
 9498.8382  45760 103660 30050 -10 994980
 9499.1303  45660 103470 30000 -10 994740
 9499.4418  45680 103510 30010 -10 994460
 9499.7534  45640 103450 30000 -20 994190
 9500.065   45620 103450 29990 0 994050
 9500.3766  45610 103410 29990 -20 994050
 9500.6883  45620 103470 30010 -10 993980
 9500.9999  45560 103360 29970 -10 993800
 9501.2921  45510 103260 29950 -10 993760
 9501.5843  45470 103180 29920 -10 993710
 9501.9155  45480 103210 29940 -10 993940
 9502.2273  45400 103080 29890 -10 994310
 9502.5196  45420 103110 29910 -10 994650
 9502.8313  45390 103080 29900 -20 995020
 9503.1432  45350 102990 29870 -10 995110
 9503.455   45290 102890 29850 -10 995240
 9503.7668  45300 102910 29860 -10 995400
 9504.0787  45260 102840 29830 -10 995410
 9504.3711  45260 102870 29850 -10 995410
 9504.6635  45220 102780 29810 -20 995590
 9504.9949  45160 102670 29790 0 995730
 9505.3069  45120 102600 29770 -10 995710
 9505.5993  45060 102480 29740 -20 995830
 9505.9113  45070 102510 29740 -10 996020
 9506.2233  45060 102510 29750 -10 995970
 9506.5354  45050 102510 29750 -10 995910
 9506.8474  45020 102460 29740 -10 996150
 9507.1595  44990 102430 29740 -20 996210
 9507.4716  44990 102450 29740 -10 996280
 9507.7837  44950 102340 29700 -10 996120
 9508.0763  44900 102280 29690 -10 996120
 9508.369   44890 102260 29700 -10 996350
 9508.6811  44840 102160 29670 -20 996680
 9508.9933  44820 102140 29660 -10 996720
 9509.3056  44760 102020 29630 -10 996570
 9509.6178  44750 102010 29630 -10 996500
 9509.9301  44750 102010 29630 -20 996550
 9510.2423  44700 101930 29610 -10 996540
 9510.5546  44660 101860 29600 -10 996580
 9510.867   44650 101860 29610 -10 996910
 9511.1793  44690 101940 29640 -10 997140
 9511.4721  44850 102340 29740 -10 997090
 9511.765   44920 102520 29800 -20 996940
 9512.0774  44860 102420 29790 0 996790
 9512.3898  44920 102560 29820 -20 996570
 9512.7023  45070 102910 29940 -10 996530
 9513.0147  45050 102910 29940 -10 996630
 9513.3272  45030 102860 29940 -10 996360
 9513.6397  45010 102840 29940 -20 996030
 9513.9523  44980 102790 29920 0 995730
 9514.2648  44950 102730 29920 -20 995530
 9514.5774  44930 102700 29910 -10 995260
 9514.8704  44890 102640 29910 0 995170
 9515.1635  44870 102630 29900 -10 995110
 9515.4761  44820 102490 29870 -20 995280
 9515.7888  44740 102360 29840 0 995550
 9516.1015  44710 102290 29830 -20 995930
 9516.4142  44690 102250 29830 -10 996310
 9516.7269  44620 102110 29800 -10 996770
 9517.0396  44580 102050 29780 -10 997260
 9517.3524  44550 102010 29790 -20 997690
 9517.6456  44580 102080 29810 0 997900
 9517.9584  44570 102090 29820 -10 998170
 9518.2712  44500 101940 29790 -20 998420
 9518.5645  44460 101880 29770 -10 998700
 9518.8774  44370 101650 29730 -10 998990
 9519.1902  44520 102040 29850 -10 999040
 9519.5031  44730 102540 30000 -10 999180
 9519.8161  44750 102610 30030 -20 999650
 9520.1095  44740 102580 30040 -10 999920
 9520.4224  44700 102530 30040 -10 1000000
 9520.7354  44680 102480 30020 -10 999990
 9521.0288  44650 102460 30040 -10 999990
 9521.3419  44640 102430 30050 -10 1000000
 9521.6549  44610 102390 30040 -20 999990
 9521.968   44550 102260 30010 -10 999990
 9522.2811  44510 102200 30010 -10 1000000
 9522.5942  44470 102140 30010 -10 999990
 9522.9073  44460 102110 30010 -10 999990
 9523.2205  44430 102060 30000 -20 1000000
 9523.5336  44420 102060 30020 0 999990
 9523.8468  44360 101950 30000 -20 999990
 9524.16    44330 101890 29990 -10 1000000
 9524.4537  44390 102050 30070 -10 999990
 9524.7474  44350 101980 30040 -10 999990
 9525.0607  44340 101970 30060 -10 1000000
 9525.374   44300 101880 30040 -10 999990
 9525.6873  44280 101860 30050 -20 999990
 9526.0006  44300 101940 30080 -10 1000000
 9526.314   44380 102140 30170 -10 999990
 9526.6078  44390 102170 30190 -10 999990
 9526.9212  44370 102140 30190 -10 1000000
 9527.2346  44360 102120 30200 -10 999870
 9527.548   44290 101980 30160 -20 999040
 9527.8615  44660 102860 30450 -10 998760
 9528.1554  44800 103190 30570 -10 998530
 9528.4689  44750 103090 30540 -10 998420
 9528.7824  44760 103150 30570 -10 998410
 9529.096   44790 103230 30600 -10 998510
 9529.4095  44740 103100 30590 -10 998480
 9529.7035  44680 103020 30570 -20 998270
 9530.0171  44640 102920 30560 -10 998020
 9530.3308  44560 102750 30530 -10 997810
 9530.6444  44490 102620 30500 -10 997300
 9530.9581  44440 102540 30480 -10 996730
 9531.2522  44450 102560 30500 -10 996430
 9531.5659  44420 102510 30490 -10 996340
 9531.8796  44440 102580 30540 -20 996150
 9532.1934  44330 102330 30470 -10 996080
 9532.5072  44320 102340 30490 -10 996060
 9532.821   44590 102980 30690 -10 996160
 9533.1348  44620 103070 30730 -10 996170
 9533.4486  44580 102990 30720 -10 996040
 9533.7429  44610 103080 30750 -10 996260
 9534.0371  44560 102980 30740 -10 996370
 9534.351   44440 102720 30660 -10 996490
 9534.6649  44500 102880 30730 -20 996730
 9534.9789  44470 102840 30730 -10 997140
 9535.2928  44420 102730 30700 -10 997410
 9535.6068  44380 102630 30690 -10 997640
 9535.9208  44360 102640 30690 -10 997720
 9536.2152  44320 102550 30680 -10 997870
 9536.5293  44270 102450 30660 -10 998030
 9536.863   44170 102240 30610 -20 998220
 9537.1574  44210 102350 30640 0 998360
 9537.4519  44180 102290 30640 -10 998490
 9537.7661  44140 102220 30640 -10 998680
 9538.0802  44110 102190 30630 -20 998960
 9538.3944  44030 102000 30580 0 999260
 9538.7086  44000 101940 30580 -20 999590
 9539.0228  43930 101810 30540 0 999790
 9539.337   43890 101750 30540 -20 999940
 9539.6513  43990 101970 30610 -10 999990
 9539.9459  43970 101930 30600 -10 1000000
 9540.2602  44040 102130 30680 -10 999990
 9540.5745  44010 102070 30680 -20 999990
 9540.8692  43960 101970 30650 0 1000000
 9541.1836  43940 101960 30650 -20 999990
 9541.498   43920 101910 30650 -10 999990
 9541.8124  43920 101930 30660 -10 1000000
 9542.1268  43830 101750 30620 -10 999990
 9542.4413  43770 101610 30590 -20 999990
 9542.7557  43800 101710 30620 -10 1000000
 9543.0702  43720 101550 30580 -10 999990
 9543.3651  43710 101530 30580 -10 999990
 9543.6599  43630 101360 30550 -10 1000000
 9543.9745  43640 101380 30560 -10 999990
 9544.289   43640 101430 30580 -10 999990
 9544.6036  43610 101370 30560 -10 1000000
 9544.9183  43530 101210 30540 -10 999990
 9545.2329  43530 101210 30530 -20 999990
 9545.5279  43530 101230 30550 -10 999510
 9545.8426  43510 101200 30550 -10 999250
 9546.1572  43460 101110 30520 -20 999480
 9546.4523  43380 100930 30480 -10 999630
 9546.767   43430 101060 30540 -10 999770
 9547.0818  43400 101020 30520 -10 999840
 9547.3966  43360 100930 30500 -10 999780
 9547.7114  43590 101510 30690 -10 999460
 9548.0262  43600 101530 30700 -10 999350
 9548.341   43550 101440 30690 -20 999370
 9548.6559  43490 101300 30650 -10 999290
 9548.9708  43470 101290 30660 -10 998920
 9549.2857  43460 101260 30650 -20 998820
 9549.6006  43450 101270 30660 -10 998530
 9549.8959  43400 101170 30650 -10 998110
 9550.1912  43340 101030 30610 -10 997950
 9550.5062  43320 101030 30620 -10 997990
 9550.8212  43310 101000 30610 -10 997990
 9551.1362  43290 100980 30610 -10 998050
 9551.4513  43200 100780 30560 -10 998220
 9551.7663  43200 100810 30580 -20 998400
 9552.0814  43200 100830 30590 -10 998390
 9552.3768  43190 100810 30600 -10 998330
 9552.6723  43190 100810 30600 -10 998400
 9552.9874  43220 100940 30650 -10 998540
 9553.3026  43310 101130 30710 -10 998640
 9553.6178  43270 101080 30710 -10 998670
 9553.933   43480 101580 30860 -10 998760
 9554.2483  43480 101590 30880 -20 999010
 9554.5635  43470 101580 30880 -10 999220
 9554.8788  43410 101470 30850 -10 999590
 9555.1941  43300 101220 30790 -10 999670
 9555.5095  43200 101030 30730 -10 999740
 9555.8051  43240 101100 30770 -20 999810
 9556.1205  43170 100980 30730 0 999790
 9556.4359  42960 100500 30590 -20 999800
 9556.7316  43120 100900 30720 -10 999920
 9557.047   43290 101290 30850 -10 999950
 9557.3624  43450 101710 30970 -10 999990
 9557.6779  43670 102230 31150 -10 1000000
 9557.9934  43640 102170 31140 -10 999990
 9558.3089  43630 102180 31150 -20 999990
 9558.6245  44110 103310 31490 -10 1000000
 9558.94    44200 103530 31580 -10 999990
 9559.2359  44060 103220 31490 -20 999990
 9559.5317  44080 103290 31510 -10 1000000
 9559.8474  43940 102980 31430 -10 999990
 9560.163   43940 103000 31440 -10 999990
 9560.4787  44020 103200 31500 -10 1000000
 9560.7944  44000 103180 31520 -20 999990
 9561.1101  43930 103030 31470 -10 999990
 9561.4258  43820 102770 31410 -10 1000000
 9561.7415  43670 102480 31310 -10 999990
 9562.0573  43600 102290 31270 -20 999990
 9562.3731  43680 102520 31350 -10 1000000
 9562.6692  43440 101980 31200 -10 999990
 9562.9653  42960 100850 30850 -10 999990
 9563.2811  43000 101000 30900 -10 1000000
 9563.597   43900 103090 31560 -10 999990
 9563.9129  44700 105000 32130 -20 999990
 9564.2288  44850 105350 32260 -10 1000000
 9564.5447  44820 105330 32260 -10 999990
 9564.8607  44790 105260 32260 -10 999990
 9565.1767  44700 105060 32190 -20 1000000
 9565.4729  44590 104830 32130 -10 999990
 9565.7692  44600 104880 32150 -10 999990
 9566.0852  44550 104770 32130 -10 1000000
 9566.4013  44530 104740 32130 -10 999990
 9566.7174  44470 104620 32100 -10 999990
 9567.0335  44460 104600 32100 -20 1000000
 9567.3496  44400 104500 32080 -10 999990
 9567.6658  44330 104340 32040 -10 999990
 9567.9819  44200 104050 31950 -10 1000000
 9568.2981  44180 104040 31970 -10 999990
 9568.5946  44190 104070 31980 -20 999990
 9568.891   44090 103880 31920 -10 1000000
 9569.2073  44070 103810 31910 -10 999990
 9569.5236  44030 103760 31910 -10 999990
 9569.8398  43890 103440 31810 -10 1000000
 9570.1562  43880 103430 31830 -10 999990
 9570.4725  43810 103290 31780 -10 999990
 9570.7889  43790 103280 31800 -10 1000000
 9571.0855  43820 103330 31810 -20 999990
 9571.4019  43740 103170 31790 -10 999990
 9571.7183  43740 103190 31790 -10 1000000
 9572.0347  43690 103100 31760 -10 999990
 9572.3512  43630 102980 31730 -10 999990
 9572.6479  43610 102930 31730 -10 1000000
 9572.9644  43680 103120 31810 -20 999990
 9573.2809  43660 103100 31790 -10 999990
 9573.5975  43630 103010 31780 -10 1000000
 9573.914   43580 102950 31760 -10 999990
 9574.2306  43570 102930 31770 -10 999990
 9574.5473  43510 102820 31750 -10 1000000
 9574.8639  43500 102800 31750 -20 999990
 9575.1805  43480 102760 31750 0 999990
 9575.4774  43460 102740 31750 -10 1000000
 9575.7743  43360 102510 31680 -20 999990
 9576.091   43370 102580 31710 -10 999990
 9576.4078  43320 102450 31670 -10 1000000
 9576.7245  43310 102450 31680 -10 999990
 9577.0413  43250 102330 31660 -20 999990
 9577.3581  43170 102160 31610 -10 1000000
 9577.675   43150 102150 31610 -10 999990
 9577.9918  43150 102140 31630 -10 999990
 9578.3087  43100 102040 31600 -10 1000000
 9578.6256  43030 101900 31550 -20 999990
 9578.9227  43170 102260 31680 -10 999990
 9579.2396  43180 102270 31700 -10 1000000
 9579.5565  43030 101940 31600 -10 999540
 9579.8537  43140 102240 31700 -10 998610
 9580.1707  43150 102260 31710 -10 998340
 9580.4877  43100 102180 31690 -20 998140
 9580.8047  43040 102040 31670 -10 998150
 9581.1218  43000 101960 31650 -10 998240
 9581.4191  42970 101910 31630 -10 998470
 9581.7362  42970 101900 31650 -10 998430
 9582.0731  43290 102710 31910 -10 998300
 9582.3704  43400 102980 32000 -20 998220
 9582.6678  43370 102930 31990 -10 998130
 9582.9849  43370 102920 32000 -10 998170
 9583.3022  43270 102730 31940 -10 998240
 9583.6194  43540 103390 32160 -10 998300
 9583.9366  43590 103510 32210 -20 998500
 9584.2539  43420 103170 32100 -10 998610
 9584.5712  43520 103370 32180 -10 998460
 9584.8687  43700 103860 32330 -10 998280
 9585.1662  43600 103610 32270 -10 997970
 9585.4835  43660 103790 32350 -10 997890
 9585.8009  43590 103610 32290 -20 997990
 9586.1183  43520 103480 32260 -10 997890
 9586.4357  43470 103380 32230 -10 997970
 9586.7531  43430 103300 32220 -20 998300
 9587.0706  43360 103160 32190 -10 998500
 9587.3881  43400 103250 32220 -10 998700
 9587.6857  43260 102940 32140 -10 998910
 9588.0033  43150 102720 32060 -10 999040
 9588.3407  43200 102820 32110 -10 999440
 9588.6582  43280 103040 32180 -10 999940
 9588.956   43380 103300 32280 -10 999990
 9589.2537  43360 103280 32280 -20 999990
 9589.5714  43390 103350 32300 0 1000000
 9589.889   43370 103360 32320 -20 999990
 9590.2067  43240 103040 32220 -10 999990
 9590.5244  43430 103490 32380 -10 1000000
 9590.8421  43440 103540 32400 -10 999990
 9591.1598  43420 103530 32400 -20 999990
 9591.4776  43420 103510 32400 -10 1000000
 9591.7755  43580 103930 32550 -10 999990
 9592.0734  43520 103820 32510 -10 999990
 9592.3913  43450 103670 32470 -10 1000000
 9592.7091  43380 103520 32430 -10 999990
 9593.027   43310 103360 32380 -10 999990
 9593.3448  43250 103240 32360 -20 1000000
 9593.6628  43290 103330 32390 -10 999990
 9593.9807  43230 103230 32370 -10 999990
 9594.2986  43370 103570 32480 -10 1000000
 9594.6166  43640 104230 32690 -10 999990
 9594.9147  43620 104190 32690 -10 999990
 9595.2129  43600 104180 32680 -10 1000000
 9595.5309  43610 104200 32710 -20 999990
 9595.8489  43500 103980 32640 -10 999990
 9596.167   43610 104270 32740 -10 1000000
 9596.4851  43580 104190 32720 -10 999990
 9596.8032  43620 104310 32770 -10 999270
 9597.1214  43570 104200 32730 -10 998800
 9597.4395  43520 104100 32710 -10 998690
 9597.7577  43920 105070 33020 -10 998650
 9598.0759  43990 105260 33090 -10 998750
 9598.3743  43890 105040 33030 -20 998950
 9598.6726  43860 104980 33020 -10 999020
 9598.9909  43840 104940 33010 -10 998990
 9599.3092  43780 104810 32960 -10 998880
 9599.6275  43970 105300 33130 -10 998890
 9599.9458  43870 105090 33070 -20 998850
 9600.2642  43900 105170 33100 -10 998880
 9600.5826  44350 106250 33450 -10 999080
 9600.9009  44390 106370 33490 -10 999450
 9601.1995  44290 106140 33430 -20 999770
 9601.5179  44280 106150 33430 -10 999980
 9601.8364  44250 106080 33420 -10 1000000
 9602.1349  44150 105880 33360 -10 999990
 9602.4534  44140 105870 33370 -10 999990
 9602.772   44080 105730 33330 -20 1000000
 9603.0905  44080 105770 33350 -10 999990
 9603.4091  43990 105550 33280 -10 999990
 9603.7277  43930 105410 33250 -20 1000000
 9604.0463  43800 105160 33170 0 999990
 9604.3649  43830 105240 33200 -20 999990
 9604.6636  43880 105360 33250 -10 1000000
 9604.9624  43800 105170 33190 -10 999990
 9605.301   43780 105160 33190 -10 999990
 9605.6197  43720 105050 33160 -10 1000000
 9605.9186  43710 105020 33160 -10 999990
 9606.2373  43650 104900 33130 -20 999990
 9606.5362  43590 104760 33080 -10 1000000
 9606.855   43570 104750 33090 -10 999990
 9607.1937  43570 104750 33100 -10 999990
 9607.5126  43560 104760 33100 -10 1000000
 9607.8115  43600 104890 33140 -10 999990
 9608.1105  43570 104800 33130 -20 999990
 9608.4294  43540 104770 33120 -10 999960
 9608.7483  43550 104800 33130 -10 999670
 9609.0672  43510 104740 33120 -10 999770
 9609.3862  43550 104850 33160 -20 999960
 9609.7052  43520 104780 33150 -10 999990
 9610.0242  43420 104560 33080 -10 999730
 9610.3433  43420 104580 33090 -10 999210
 9610.6623  43450 104680 33140 -10 998670
 9610.9615  43480 104780 33170 -20 998290
 9611.2806  43460 104740 33160 -10 998140
 9611.5997  43470 104780 33180 -10 997960
 9611.8989  43480 104800 33190 -10 997870
 9612.218   43440 104760 33190 -20 997760
 9612.5372  43490 104880 33230 -10 997550
 9612.8564  43430 104750 33190 -10 997370
 9613.1757  43430 104760 33210 -10 997330
 9613.4949  43390 104700 33190 -10 997240
 9613.7942  43460 104870 33240 -20 997230
 9614.0936  43430 104820 33240 -10 997180
 9614.4129  43500 105000 33300 -10 997100
 9614.7522  43400 104770 33230 -10 997160
 9615.0715  43650 105410 33440 -10 997250
 9615.371   44080 106460 33780 -20 997310
 9615.6904  44140 106610 33830 -10 997140
 9616.0098  44190 106760 33890 -10 997060
 9616.3292  44220 106860 33920 -10 997040
 9616.6487  44190 106830 33920 -20 997030
 9616.9682  38880 94000 29850 0 996870
 9617.2677  41870 101220 32150 -10 996860
 9617.5673  42630 103100 32760 -20 997110
 9617.8868  43360 104880 33320 -10 997410
 9618.2264  43420 105020 33370 -10 997260
 9618.546   43470 105170 33430 -10 997070
 9618.8456  43450 105150 33420 -20 997060
 9619.1652  43510 105290 33470 -10 997140
 9619.4849  43520 105340 33500 -10 996970
 9619.8046  43470 105240 33480 -10 996740
 9620.1243  43440 105180 33450 -10 996590
 9620.444   43460 105250 33490 -10 996460
 9620.7637  43410 105130 33450 -10 996590
 9621.0635  43410 105160 33470 -20 996570
 9621.3633  43420 105200 33480 -10 996410
 9621.6831  43510 105450 33580 -10 996280
 9622.003   43800 106150 33800 -10 996120
 9622.3228  43930 106500 33910 -10 996000
 9622.6427  44080 106890 34040 -20 995900
 9622.9626  44080 106890 34050 -10 995930
 9623.2825  44060 106880 34050 -10 996030
 9623.5824  44140 107100 34120 -10 996150
 9623.8824  44100 107010 34100 -10 996170
 9624.2224  44160 107150 34150 -10 996260
 9624.5424  44110 107070 34140 -10 996710
 9624.8424  44110 107110 34150 -20 996950
 9625.1624  44080 107010 34130 -10 997050
 9625.4825  44070 107030 34140 -10 996920
 9625.8026  44040 107000 34130 -10 996670
 9626.1227  44030 106970 34140 -10 996680
 9626.4428  43980 106870 34100 -10 996520
 9626.763   43930 106790 34080 -10 996420
 9627.0632  43940 106800 34090 -10 996140
 9627.3833  43880 106710 34070 -20 996150
 9627.7036  43850 106640 34050 -10 996330
 9628.0038  43840 106620 34050 -10 996370
 9628.324   43830 106630 34060 -10 996330
 9628.6443  43840 106660 34070 -10 996180
 9628.9646  43830 106670 34070 -10 995950
 9629.285   43800 106620 34060 -20 995890
 9629.6053  43810 106640 34090 -10 996050
 9629.9257  43940 106980 34200 -10 996180
 9630.226   44090 107380 34330 -10 996170
 9630.5464  44150 107530 34380 -10 996020
 9630.8669  44170 107570 34400 -20 995940
 9631.1673  44160 107570 34410 -10 996000
 9631.4878  44340 108040 34560 -10 996070
 9631.8083  44470 108370 34670 -10 996150
 9632.1288  44380 108190 34620 -10 996340
 9632.4493  44290 107940 34560 -10 996500
 9632.7699  44290 107990 34560 -10 996600
 9633.0905  44370 108210 34650 -10 996760
 9633.4111  44380 108240 34660 -10 996700
 9633.7317  44320 108110 34620 -20 996810
 9634.0323  44270 108010 34600 -10 996810
 9634.3329  44240 107940 34580 -10 996670
 9634.6536  44200 107870 34570 -10 996730
 9634.9743  44170 107840 34560 -20 996670
 9635.2951  44160 107820 34570 -10 996540
 9635.6158  44200 107930 34620 -10 996630
 9635.9366  44180 107900 34600 -20 996700
 9636.2574  44150 107850 34600 -10 996860
 9636.5782  44130 107800 34590 -10 996950
 9636.879   44090 107730 34570 -10 997180
 9637.1798  44030 107610 34540 -10 997320
 9637.5007  44030 107610 34540 -10 997530
 9637.8216  44000 107570 34540 -20 997590
 9638.1425  44010 107620 34560 -10 997750
 9638.4635  43980 107560 34550 -10 997950
 9638.7844  44240 108220 34760 -20 998090
 9639.1054  44420 108660 34910 -10 998320
 9639.4265  44440 108750 34950 -10 998470
 9639.7475  44430 108710 34950 -20 998600
 9640.0685  44430 108760 34970 0 998670
 9640.3696  44470 108850 35000 -20 998860
 9640.6907  44470 108900 35030 -10 998940
 9641.0118  44440 108830 35010 -10 999120
 9641.3129  44440 108830 35030 -10 999160
 9641.634   44470 108920 35050 -10 999160
 9641.9552  44410 108810 35030 -10 999050
 9642.2764  44400 108810 35030 -20 998970
 9642.5976  44320 108600 34980 -10 998820
 9642.9189  44300 108600 34990 -10 998910
 9643.2201  44360 108760 35040 -10 999080
 9643.5414  44430 108940 35110 -10 999290
 9643.8828  44400 108890 35100 -20 999190
 9644.184   44450 109030 35160 -10 998990
 9644.4853  44470 109120 35190 -10 998690
 9644.8067  44440 109040 35170 -10 998490
 9645.1281  44400 108970 35160 -10 998540
 9645.4495  44330 108790 35110 -20 998590
 9645.771   44290 108750 35100 -10 998690
 9646.0924  44240 108640 35080 -10 998740
 9646.4139  44310 108800 35130 -10 998750
 9646.7354  44430 109120 35240 -10 998830
 9647.0369  44440 109180 35270 -10 998820
 9647.3383  44420 109130 35260 -20 998700
 9647.6599  44400 109110 35260 -10 998830
 9647.9815  44360 109020 35240 -10 999080
 9648.3031  44330 108950 35230 -10 999340
 9648.6248  44330 108990 35260 -20 999650
 9648.9464  44290 108890 35220 -10 999960
 9649.2681  44280 108900 35230 -10 999990
 9649.5697  44260 108870 35240 -10 999990
 9649.8914  44210 108750 35190 -10 1000000
 9650.2132  44200 108760 35230 -20 999990
 9650.5148  44190 108760 35220 -10 999850
 9650.8366  44170 108700 35200 -10 999680
 9651.1584  44120 108650 35200 -10 999470
 9651.4803  44060 108490 35160 -20 999250
 9651.8021  44060 108520 35170 -10 999000
 9652.124   44010 108390 35150 -10 998690
 9652.4459  43970 108300 35120 -10 998510
 9652.7678  43940 108290 35120 -10 998290
 9653.0898  43970 108350 35150 -20 998100
 9653.3916  43950 108320 35150 -10 998100
 9653.6935  43870 108140 35100 -10 998050
 9654.0155  43870 108190 35120 -10 998060
 9654.3375  43970 108410 35210 -10 998260
 9654.6596  44030 108620 35280 -10 998300
 9654.9816  44030 108620 35300 -10 998230
 9655.3037  44040 108640 35300 -20 998400
 9655.6259  44020 108630 35300 -10 998480
 9655.948   44070 108770 35370 -10 998640
 9656.2702  44390 109570 35630 -10 998860
 9656.5923  44540 109960 35770 -10 998940
 9656.8944  44540 110010 35800 -20 998760
 9657.1965  44530 109960 35780 -10 998520
 9657.5187  44560 110070 35830 -10 998490
 9657.841   44650 110320 35920 -20 998460
 9658.1633  44680 110410 35960 -10 998470
 9658.4856  44700 110470 35980 -10 998340
 9658.808   44680 110440 35990 -10 998270
 9659.1303  44650 110380 35970 -10 998220
 9659.4527  44700 110520 36030 -20 998340
 9659.7751  44770 110700 36090 -10 998360
 9660.0774  44840 110900 36180 -10 998390
 9660.3796  44800 110820 36150 -20 998510
 9660.7021  44820 110900 36180 -10 998850
 9661.0246  44850 110980 36230 -10 999000
 9661.3471  44820 110920 36220 -10 999080
 9661.6696  44790 110850 36190 -10 999270
 9661.9922  44730 110750 36180 -20 999470
 9662.3148  44740 110770 36190 -10 999580
 9662.6374  44700 110690 36170 -10 999590
 9662.9398  44660 110610 36150 -10 999900
 9663.2423  44610 110520 36130 -10 1000000
 9663.5649  44610 110510 36130 -10 999990
 9663.8876  44570 110440 36130 -20 999990
 9664.2103  44590 110520 36160 -10 1000000
 9664.5331  44510 110340 36120 -10 999990
 9664.8558  44790 111030 36350 -10 999990
 9665.1786  44960 111450 36490 -10 1000000
 9665.5014  44930 111420 36500 -20 999990
 9665.8242  44950 111470 36520 -10 999990
 9666.147   44860 111250 36460 0 1000000
 9666.4699  44890 111340 36490 -20 999990
 9666.7726  44980 111570 36580 -10 999990
 9667.0955  44990 111630 36620 -20 1000000
 9667.4184  44960 111560 36590 -10 999990
 9667.7211  44850 111300 36520 -10 999990
 9668.0441  44900 111460 36580 -10 1000000
 9668.3671  45000 111710 36670 -20 999990
 9668.6901  45010 111740 36690 -10 999990
 9669.0131  44900 111500 36610 -20 1000000
 9669.3362  44890 111490 36620 -10 999990
 9669.6391  44910 111560 36650 -10 999540
 9669.942   44890 111520 36650 -10 999010
 9670.2651  44870 111490 36650 -10 998820
 9670.5882  44820 111410 36630 -10 998840
 9670.9114  44820 111400 36640 -10 998880
 9671.2346  44830 111460 36670 -20 998890
 9671.5578  44930 111730 36760 -10 998830
 9671.881   45050 112030 36870 -10 998700
 9672.2043  45060 112070 36890 -20 998300
 9672.5275  45050 112090 36920 -10 997900
 9672.8508  45060 112130 36930 -10 997590
 9673.1539  45080 112190 36960 -10 997360
 9673.4571  45050 112120 36950 -20 997150
 9673.7804  45050 112180 36970 -10 996850
 9674.1038  45020 112100 36970 -10 996710
 9674.4272  45000 112080 36950 -10 996800
 9674.7506  44970 112020 36950 -20 996620
 9675.0741  44980 112090 36980 -10 996480
 9675.3975  44990 112100 37000 -10 996400
 9675.721   45120 112450 37120 -20 996390
 9676.0445  45320 112980 37310 -10 996410
 9676.3478  45420 113220 37390 -10 996620
 9676.6512  45340 113070 37350 -20 996960
 9676.995   45330 113070 37360 -10 996930
 9677.3186  45280 112930 37320 -10 996890
 9677.622   45240 112870 37310 -20 997130
 9677.9456  45280 113000 37360 -10 997190
 9678.2693  45290 113010 37370 -10 997400
 9678.5929  45310 113110 37420 -10 997450
 9678.9167  45330 113170 37450 -20 997660
 9679.2404  45300 113110 37430 -10 997930
 9679.5641  45520 113670 37640 -10 998200
 9679.8677  45800 114390 37880 -10 998500
 9680.1712  45860 114570 37940 -20 998700
 9680.495   45970 114860 38050 -10 998560
 9680.8189  46060 115070 38140 -20 998480
 9681.1427  46030 115050 38130 -10 998520
 9681.4666  46060 115140 38170 -10 998650
 9681.7905  45940 114860 38080 -10 998640
 9682.1145  45920 114830 38090 -10 998580
 9682.4384  45900 114810 38080 -20 998640
 9682.7624  45890 114800 38090 -10 998840
 9683.0864  45900 114840 38130 -10 998950
 9683.4104  45870 114790 38110 -20 999240
 9683.7142  45880 114820 38140 -10 999600
 9684.018   45940 114980 38190 -10 999850
 9684.342   45960 115050 38220 -20 999990
 9684.6864  45910 114970 38210 -10 999990
 9685.0105  45900 114960 38210 -10 999990
 9685.3144  45860 114850 38190 -20 1000000
 9685.6386  45900 114990 38230 -10 999990
 9685.9628  45920 115070 38270 -10 999990
 9686.287   45870 114940 38250 -10 1000000
 9686.591   45870 115000 38260 -20 999990
 9686.8949  45860 114940 38250 -10 999990
 9687.2192  45830 114920 38260 -10 1000000
 9687.5435  45840 114930 38270 -10 999990
 9687.8678  45840 114980 38300 -20 999990
 9688.1922  45820 114930 38280 -10 1000000
 9688.5165  45830 114960 38300 -20 999990
 9688.8409  45790 114920 38310 -10 999990
 9689.1451  45820 114970 38330 -10 1000000
 9689.4695  45820 115010 38360 -10 999990
 9689.8142  45860 115140 38400 -20 999990
 9690.1387  45860 115150 38420 -10 1000000
 9690.4429  45900 115260 38460 -10 999990
 9690.7471  45890 115250 38480 -20 999990
 9691.0717  45950 115450 38560 -10 1000000
 9691.3962  46010 115610 38600 -10 999990
 9691.7208  46030 115670 38640 -20 999990
 9692.0454  46050 115730 38670 -10 1000000
 9692.3701  46090 115870 38730 -10 999990
 9692.6947  46080 115850 38730 -20 999570
 9693.0194  46180 116120 38820 -10 999470
 9693.3238  46330 116530 38970 -10 999350
 9693.6485  46390 116690 39040 -20 999370
 9693.9732  46390 116730 39060 -10 999090
 9694.2777  46430 116840 39100 -10 998770
 9694.6025  46570 117200 39230 -10 998300
 9694.9273  46660 117470 39330 -20 997720
 9695.2521  46700 117570 39390 -10 997360
 9695.5769  46810 117840 39480 -10 997100
 9695.9018  46740 117730 39450 -20 996910
 9696.2267  46710 117650 39440 -10 996780
 9696.5516  46700 117650 39440 -20 996690
 9696.8563  46860 118070 39600 -10 996530
 9697.1609  46910 118210 39640 -20 996390
 9697.4859  46730 117780 39520 -10 996310
 9697.8109  47270 119160 39990 -10 996270
 9698.1359  48020 121090 40650 -20 996380
 9698.4609  47840 120610 40510 -10 996510
 9698.786   47690 120280 40400 -10 996540
 9699.1111  48460 122230 41060 -20 996660
 9699.4159  49690 125370 42120 -10 996700
 9699.741   50290 126860 42650 -20 996800
 9700.0865  50380 127120 42730 -10 996840
 9700.3914  50420 127250 42800 -10 996940
 9700.6962  50320 127010 42730 -20 997020
 9701.0214  50270 126910 42690 -10 997260
 9701.3467  50180 126700 42630 -20 997480
 9701.672   50120 126570 42610 -10 997730
 9701.9972  50060 126470 42570 -10 997910
 9702.3226  50000 126310 42530 -20 998010
 9702.6479  49960 126230 42510 -10 998110
 9702.9732  49920 126150 42490 -20 998400
 9703.2783  49910 126140 42490 -10 998460
 9703.5833  49800 125890 42420 -20 998000
 9703.9088  49730 125740 42390 -10 997400
 9704.2342  49630 125500 42310 -20 997010
 9704.5597  49670 125630 42360 -10 996630
 9704.8851  49560 125390 42290 -10 996290
 9705.2106  49540 125350 42290 -20 996020
 9705.5362  49480 125210 42250 -10 995910
 9705.8617  49480 125240 42270 -20 995970
 9706.1873  49400 125070 42210 -10 996020
 9706.4925  49380 125010 42210 -20 996000
 9706.7978  49300 124850 42160 -10 996230
 9707.1438  49240 124710 42120 -10 996360
 9707.4695  49170 124560 42090 -20 996330
 9707.7748  49130 124470 42050 -10 996540
 9708.1005  49120 124480 42080 -20 996750
 9708.4262  49100 124430 42070 -10 996720
 9708.752   48980 124150 41980 -20 996690
 9709.0777  48960 124110 41980 -10 996810
 9709.3832  48970 124180 42000 -10 997030
 9709.709   48920 124060 41970 -20 997240
 9710.0552  48870 123950 41950 -10 997260
 9710.3607  48710 123560 41830 -10 997640
 9710.6662  48680 123500 41810 -10 997970
 9710.9921  48540 123170 41710 -20 998220
 9711.318   48350 122710 41560 -10 998480
 9711.644   48420 122910 41630 -20 998690
 9711.97    48520 123180 41740 -10 998920
 9712.2959  48520 123190 41750 -10 999280
 9712.622   48560 123340 41810 -20 999580
 9712.9276  48590 123420 41870 -10 999730
 9713.2537  48640 123570 41910 -10 999850
 9713.5798  48640 123570 41920 -20 999950
 9713.8855  48610 123500 41910 -10 999990
 9714.2116  48530 123340 41860 -20 1000000
 9714.5378  48540 123380 41890 -10 999990
 9714.8639  48560 123460 41920 -20 999990
 9715.1901  48480 123260 41870 -10 1000000
 9715.5163  48480 123290 41880 -20 999990
 9715.8222  48420 123170 41860 -10 999990
 9716.1484  48380 123050 41840 -10 1000000
 9716.4747  48320 122950 41800 -10 999990
 9716.801   48310 122930 41800 -20 999990
 9717.1273  48250 122800 41770 -10 1000000
 9717.4333  48240 122800 41770 -20 999990
 9717.7597  48250 122850 41800 -10 999990
 9718.086   48260 122910 41820 -10 1000000
 9718.4125  48380 123200 41940 -20 999990
 9718.7389  48390 123280 41980 -10 999990
 9719.0653  48300 123070 41910 -20 1000000
 9719.3918  48290 123040 41910 -10 999990
 9719.7183  48280 123050 41920 -10 999990
 9720.0449  48500 123630 42140 -20 1000000
 9720.351   48490 123590 42130 -10 999990
 9720.6571  48590 123910 42240 -20 999990
 9720.9837  48730 124250 42370 -10 1000000
 9721.3103  48660 124120 42340 -10 999990
 9721.637   48670 124140 42360 -20 999990
 9721.9636  48670 124190 42390 -10 1000000
 9722.2903  48740 124380 42460 -20 999990
 9722.5966  48810 124590 42530 -10 999990
 9722.9233  49040 125200 42750 -20 1000000
 9723.2705  49160 125510 42880 -20 999990
 9723.5768  49150 125500 42870 -10 999990
 9723.8832  49200 125660 42940 -10 1000000
 9724.21    49140 125530 42910 -20 999990
 9724.5368  49120 125490 42910 -10 999990
 9724.8637  49080 125410 42880 -10 999900
 9725.1906  49050 125380 42890 -20 999350
 9725.5175  48970 125190 42810 -10 999370
 9725.8444  49050 125370 42900 -10 999240
 9726.1713  49000 125310 42890 -20 999140
 9726.4983  48950 125180 42830 -20 998740
 9726.8253  48900 125090 42820 -10 998630
 9727.1319  48880 125050 42810 -10 998590
 9727.4385  48950 125270 42910 -20 998700
 9727.7655  49010 125440 42970 -10 998790
 9728.0926  48960 125340 42950 -20 998770
 9728.4197  49060 125600 43040 -10 998890
 9728.7468  49310 126250 43280 -10 998770
 9729.074   49300 126250 43290 -20 998630
 9729.4011  49230 126090 43240 -10 998560
 9729.7079  49090 125760 43150 -10 998760
 9730.0146  48810 125060 42910 -20 999080
 9730.3419  48550 124430 42700 -10 999370
 9730.6691  48800 125060 42920 -20 999800
 9730.9964  49710 127450 43750 -10 999990
 9731.3237  50350 129070 44340 -20 999990
 9731.651   50440 129330 44420 -10 1000000
 9731.9784  50510 129540 44500 -20 999990
 9732.3057  50470 129450 44490 -10 999990
 9732.6331  50410 129320 44450 -20 1000000
 9732.9401  50410 129360 44470 -10 999990
 9733.247   50350 129200 44430 -10 999990
 9733.5745  50300 129120 44410 -20 1000000
 9733.902   50240 128960 44360 -10 999990
 9734.2295  50170 128830 44320 -20 999990
 9734.557   50130 128720 44300 -10 1000000
 9734.8845  50180 128880 44370 -20 999990
 9735.2121  50220 129030 44410 -10 999990
 9735.5397  50210 128990 44410 -20 1000000
 9735.8673  50170 128930 44410 -10 999990
 9736.1949  50150 128900 44400 -20 999990
 9736.5021  50410 129580 44640 -10 1000000
 9736.8093  50470 129760 44710 -20 999990
 9737.137   50470 129780 44740 -10 999990
 9737.4647  50430 129690 44700 -10 1000000
 9737.7925  50400 129650 44700 -20 999990
 9738.1202  50470 129850 44780 -10 999990
 9738.448   50570 130110 44890 -20 1000000
 9738.7758  50640 130340 44960 -10 999990
 9739.1037  50760 130660 45090 -20 999990
 9739.411   50750 130630 45080 -10 1000000
 9739.7184  50660 130420 45030 -20 999990
 9740.0668  50590 130290 44980 -10 999990
 9740.3947  50630 130390 45030 -20 1000000
 9740.7022  50720 130670 45130 -10 999990
 9741.0301  50800 130880 45220 -10 999990
 9741.3581  50790 130890 45230 -20 1000000
 9741.6861  50830 131000 45280 -10 999790
 9742.0142  50920 131250 45370 -20 999880
 9742.3422  50930 131300 45400 -10 1000000
 9742.6498  51020 131550 45490 -20 999990
 9742.9779  51140 131890 45630 -20 999990
 9743.306   51140 131890 45620 -10 1000000
 9743.6137  51150 131950 45660 -20 999990
 9743.9418  51110 131860 45630 -10 999990
 9744.27    51100 131860 45650 -10 1000000
 9744.5982  51070 131820 45630 -20 999980
 9744.9265  51050 131770 45630 -10 999360
 9745.2547  51010 131700 45610 -20 999280
 9745.583   51020 131720 45630 -10 999230
 9745.9113  50940 131570 45580 -10 999140
 9746.2396  50950 131610 45610 -20 998890
 9746.568   50990 131710 45650 -20 998820
 9746.8758  51110 132050 45780 -10 998920
 9747.1837  51110 132090 45800 -20 998850
 9747.5121  51140 132190 45840 -10 998650
 9747.8405  51150 132260 45880 -10 998550
 9748.169   51100 132110 45820 -20 998580
 9748.4975  51130 132230 45890 -10 998600
 9748.826   51120 132220 45880 -20 998670
 9749.1545  51120 132230 45890 -20 998680
 9749.483   51230 132540 46020 -20 998710
 9749.8116  51190 132450 45990 -20 998950
 9750.1197  51120 132310 45950 -20 999050
 9750.4277  51140 132380 45990 -10 999170
 9750.7564  51100 132300 45960 -20 999530
 9751.085   51050 132190 45930 -20 999700
 9751.4137  51080 132270 45960 -10 999640
 9751.7424  51130 132450 46040 -20 999610
 9752.0711  51150 132500 46060 -20 999540
 9752.3999  51110 132440 46050 -10 999480
 9752.7287  51080 132390 46040 -20 999540
 9753.0369  51040 132270 46010 -10 999570
 9753.3657  51060 132350 46040 -10 999560
 9753.6946  51180 132700 46180 -20 999510
 9754.0029  51180 132710 46180 -10 999360
 9754.3318  51160 132700 46180 -20 999170
 9754.6607  51230 132880 46270 -10 998840
 9754.9896  51220 132890 46280 -20 998470
 9755.3185  51170 132770 46250 -10 998270
 9755.6475  51160 132780 46260 -20 998110
 9755.9765  51150 132770 46260 -10 998110
 9756.3055  51230 132990 46330 -20 997950
 9756.614   51370 133390 46500 -20 997830
 9756.9225  51460 133630 46580 -20 998090
 9757.2516  51540 133870 46690 -10 998420
 9757.5807  51720 134350 46850 -20 998580
 9757.9098  51920 134890 47040 -20 998790
 9758.239   52090 135380 47230 -20 998970
 9758.5681  52080 135350 47230 -20 999140
 9758.8973  52070 135380 47250 -10 999070
 9759.2265  52000 135210 47200 -20 999090
 9759.5352  51960 135100 47160 -20 999420
 9759.8439  51970 135150 47190 -10 999740
 9760.1938  51960 135140 47200 -20 999990
 9760.5436  52000 135280 47260 -20 999990
 9760.8524  52120 135630 47380 -10 1000000
 9761.1612  52030 135400 47320 -20 999990
 9761.4905  52260 136020 47540 -10 999990
 9761.8199  52660 137090 47910 -20 1000000
 9762.1494  52700 137210 47990 -20 999990
 9762.4788  52740 137330 48030 -10 999990
 9762.8083  52860 137650 48150 -20 1000000
 9763.1172  52810 137560 48110 -20 999990
 9763.4261  52890 137780 48220 -10 999990
 9763.7556  53140 138470 48470 -20 1000000
 9764.0852  53130 138440 48460 -20 999990
 9764.4147  53130 138470 48480 -20 999990
 9764.7443  53170 138620 48540 -10 1000000
 9765.074   53100 138450 48490 -20 999990
 9765.4036  53030 138290 48450 -20 999990
 9765.7333  52970 138150 48400 -10 1000000
 9766.063   52890 137980 48360 -20 999990
 9766.3721  52840 137850 48320 -20 999990
 9766.6812  52920 138080 48400 -20 1000000
 9767.011   52840 137910 48350 -10 999990
 9767.3407  53000 138330 48510 -20 999990
 9767.6705  53110 138640 48640 -20 1000000
 9768.0004  53310 139180 48830 -20 999990
 9768.3302  53300 139220 48850 -10 999990
 9768.6601  53190 138920 48760 -20 1000000
 9768.99    53270 139160 48850 -20 999990
 9769.3199  53220 139020 48810 -20 999990
 9769.6498  53360 139440 48970 -20 1000000
 9769.9592  53430 139630 49050 -10 999990
 9770.2685  53410 139620 49050 -20 999990
 9770.5985  53290 139310 48950 -20 1000000
 9770.9285  53300 139360 48980 -10 999990
 9771.2586  53260 139290 48950 -20 999990
 9771.5887  53200 139140 48920 -20 1000000
 9771.9188  53130 139000 48890 -10 999990
 9772.2489  53070 138860 48840 -20 999990
 9772.579   53060 138880 48850 -10 1000000
 9772.9092  53030 138770 48830 -20 999990
 9773.2394  53090 138980 48910 -20 999990
 9773.5489  53330 139630 49140 -10 1000000
 9773.8585  53310 139590 49140 -20 999990
 9774.2094  53370 139750 49220 -20 999990
 9774.5397  53330 139710 49200 -20 1000000
 9774.8493  53370 139780 49240 -20 999990
 9775.1797  53270 139590 49180 -20 999990
 9775.51    54130 141830 49990 -20 1000000
 9775.8404  54520 142900 50360 -10 999990
 9776.1501  54460 142720 50330 -20 999990
 9776.4805  54450 142730 50330 -20 1000000
 9776.8109  54410 142660 50310 -20 999990
 9777.1414  54310 142430 50230 -20 999990
 9777.4719  54330 142500 50280 -20 1000000
 9777.7817  54230 142240 50190 -10 999990
 9778.1122  54280 142440 50280 -20 999990
 9778.4428  54280 142420 50280 -20 1000000
 9778.7734  54070 141910 50110 -20 999990
 9779.1039  54190 142230 50240 -20 999990
 9779.4139  54430 142900 50480 -10 1000000
 9779.7445  54440 142950 50510 -20 999990
 9780.0752  54340 142700 50430 -20 999990
 9780.4059  54430 142960 50540 -20 1000000
 9780.7366  54720 143750 50830 -20 999990
 9781.0466  54950 144400 51060 -10 999990
 9781.3774  54820 144050 50950 -20 1000000
 9781.7081  54670 143690 50840 -20 999990
 9782.0389  54590 143500 50770 -10 999990
 9782.3698  54450 143150 50670 -20 1000000
 9782.7006  54290 142770 50550 -20 999990
 9783.0108  54610 143630 50850 -20 999990
 9783.3417  55130 145020 51360 -20 1000000
 9783.6726  55750 146660 51960 -10 999650
 9783.9828  56050 147490 52250 -20 998910
 9784.3138  56170 147830 52400 -20 998530
 9784.6447  56180 147890 52420 -20 998150
 9784.9757  56460 148640 52710 -10 997960
 9785.3067  57010 150140 53250 -30 997760
 9785.6378  56980 150090 53250 -10 997580
 9785.9688  56540 148960 52850 -20 997590
 9786.2999  56490 148880 52850 -20 997460
 9786.6104  56640 149300 53020 -10 997450
 9786.9208  57220 150860 53560 -20 997350
 9787.2519  59960 158070 56150 -30 997230
 9787.5831  66200 174480 62010 -20 997110
 9787.9143  72250 190450 67700 -20 997160
 9788.2455  75500 199070 70820 -30 997280
 9788.5768  76410 201500 71690 -20 997460
 9788.908   76680 202260 71970 -30 997620
 9789.2393  76550 201960 71870 -20 997740
 9789.5707  76440 201710 71800 -30 997810
 9789.902   76030 200640 71430 -20 997720
 9790.2333  75890 200310 71330 -30 997770
 9790.5647  75610 199620 71090 -20 997800
 9790.8754  75370 199010 70890 -30 998050
 9791.1861  75190 198570 70740 -20 998380
 9791.5176  74910 197850 70500 -30 998550
 9791.8491  74850 197760 70480 -20 998630
 9792.1805  74580 197040 70210 -20 998820
 9792.5121  74360 196520 70060 -30 999030
 9792.8436  74380 196610 70100 -20 999210
 9793.1752  74150 196040 69910 -30 999290
 9793.486   73980 195610 69770 -20 999150
 9793.7969  73760 195070 69590 -30 999070
 9794.1285  73550 194520 69400 -20 999150
 9794.4809  73320 193950 69210 -20 999380
 9794.8126  73100 193410 69030 -20 999500
 9795.1236  72460 191720 68440 -30 999530
 9795.4553  72120 190890 68150 -20 999550
 9795.787   71920 190390 67980 -20 999740
 9796.1188  72380 191620 68420 -30 999810
 9796.4506  72520 192050 68600 -20 999960
 9796.7824  72650 192430 68750 -20 999990
 9797.0935  72470 191960 68590 -30 1000000
 9797.4046  72490 192030 68630 -20 999990
 9797.7365  72290 191540 68480 -30 999990
 9798.0684  72220 191390 68430 -20 999530
 9798.4003  72070 191040 68320 -20 998750
 9798.7322  71950 190730 68220 -30 998390
 9799.0642  71870 190550 68160 -20 998190
 9799.3962  71830 190500 68160 -20 998120
 9799.7282  71740 190270 68100 -30 998240
 9800.0395  71580 189890 67960 -20 998200
 9800.3716  71460 189570 67870 -30 998140
 9800.7037  71330 189280 67780 -20 998010
 9801.015   71280 189130 67730 -20 997850
 9801.3471  71180 188930 67680 -20 997840
 9801.6793  71080 188710 67610 -30 997850
 9802.0115  71000 188520 67550 -30 997760
 9802.3437  70860 188160 67430 -20 997640
 9802.6759  70640 187600 67250 -20 997670
 9803.0081  70630 187630 67280 -30 997680
 9803.3404  70560 187440 67210 -20 997650
 9803.6519  70430 187150 67130 -20 997740
 9803.9634  70270 186760 67010 -30 997850
 9804.2958  70190 186580 66950 -20 997920
 9804.6281  70120 186430 66900 -20 998120
 9804.9605  70000 186120 66800 -30 998190
 9805.2929  69920 185960 66770 -20 998100
 9805.6253  69780 185600 66640 -20 997890
 9805.9578  69740 185510 66630 -20 997770
 9806.2903  69540 185020 66460 -30 997820
 9806.6227  69510 184970 66460 -20 997860
 9806.9553  69380 184630 66350 -20 997990
 9807.2878  69260 184380 66260 -20 998150
 9807.5996  69100 183980 66140 -30 998540
 9807.9114  68980 183710 66050 -20 998960
 9808.244   68930 183580 66020 -20 999440
 9808.5766  68830 183320 65950 -20 999750
 9808.9093  68710 183050 65860 -20 999810
 9809.2419  68560 182700 65750 -20 999660
 9809.5746  68510 182600 65720 -30 999610
 9809.9074  68290 182000 65520 -20 999530
 9810.2401  62890 167690 60360 -20 999180
 9810.5521  67280 179370 64590 -20 999100
 9810.8849  67070 178830 64410 -20 999030
 9811.2177  66940 178510 64310 -20 998940
 9811.5297  66820 178210 64220 -20 998780
 9811.8626  66760 178060 64170 -30 998580
 9812.1954  66630 177750 64070 -20 998210
 9812.5283  66520 177510 63990 -20 998080
 9812.8613  66340 177060 63860 -20 998000
 9813.1942  66260 176870 63790 -20 997820
 9813.5064  66110 176490 63680 -20 997890
 9813.8185  66020 176270 63610 -20 998100
 9814.1724  65950 176130 63560 -20 998180
 9814.5262  65840 175860 63490 -30 998230
 9814.8385  65710 175540 63390 -20 998170
 9815.1507  65620 175330 63320 -20 998230
 9815.4839  65510 175050 63230 -20 998440
 9815.817   65380 174750 63150 -20 998680
 9816.1501  65290 174520 63070 -20 998930
 9816.4833  65210 174320 63010 -30 999140
 9816.8165  65030 173880 62860 -20 999350
 9817.1497  65000 173850 62870 -20 999600
 9817.4622  64910 173590 62780 -20 999760
 9817.7746  64830 173430 62740 -20 999810
 9818.1079  64690 173090 62640 -20 999710
 9818.4412  64590 172830 62550 -30 999680
 9818.7745  64480 172570 62460 -10 999710
 9819.1079  64320 172200 62350 -30 999860
 9819.4413  64260 172020 62300 -20 999970
 9819.7747  64170 171840 62230 -10 1000000
 9820.1081  64100 171650 62190 -30 999990
 9820.4415  63960 171330 62080 -20 999990
 9820.7542  63890 171160 62040 -10 1000000
 9821.0668  63780 170880 61950 -30 999990
 9821.4003  63660 170600 61860 -20 999990
 9821.7339  63490 170170 61710 -20 1000000
 9822.0675  63440 170030 61680 -20 999990
 9822.401   63280 169650 61560 -20 999990
 9822.7346  63220 169530 61520 -20 1000000
 9823.0683  63140 169340 61460 -20 999990
 9823.4019  62940 168830 61300 -20 999990
 9823.7356  62870 168680 61260 -20 1000000
 9824.0485  62810 168510 61210 -20 999990
 9824.3613  62590 168000 61030 -30 999990
 9824.6951  62590 167990 61040 -10 1000000
 9825.0288  62500 167800 60990 -20 999990
 9825.3626  62390 167510 60890 -20 999990
 9825.6964  62300 167320 60840 -20 1000000
 9826.0303  62220 167110 60770 -20 999990
 9826.3641  62030 166660 60610 -30 999990
 9826.698   61960 166480 60570 -20 1000000
 9827.0319  61860 166230 60500 -10 999990
 9827.3659  61690 165790 60350 -30 999990
 9827.679   61470 165230 60150 -20 1000000
 9828.0129  61110 164310 59840 -20 999990
 9828.3469  60650 163080 59380 -20 999990
 9828.6601  60580 162930 59360 -20 1000000
 9828.9941  60780 163500 59580 -20 999990
 9829.3282  60840 163680 59660 -20 999990
 9829.6623  60860 163750 59690 -20 1000000
 9829.9964  60800 163630 59660 -20 999990
 9830.3305  60750 163490 59620 -20 999990
 9830.6647  60680 163340 59580 -20 1000000
 9830.978   60540 162980 59460 -20 999990
 9831.2913  60420 162700 59370 -20 999990
 9831.6255  60230 162210 59210 -20 1000000
 9831.9598  60210 162190 59210 -20 999990
 9832.294   60110 161960 59140 -20 999990
 9832.6283  59960 161560 59000 -20 1000000
 9832.9627  59900 161420 58980 -20 999990
 9833.297   59740 161050 58840 -20 999990
 9833.6105  59690 160910 58810 -20 1000000
 9833.9449  59670 160890 58800 -20 999780
 9834.3002  59580 160630 58740 -20 999270
 9834.6346  59470 160400 58640 -20 999200
 9834.9691  59410 160250 58610 -20 998990
 9835.2826  59300 159960 58520 -20 999070
 9835.5962  59240 159830 58490 -20 999110
 9835.9308  59150 159630 58430 -20 999060
 9836.2653  59060 159380 58340 -20 998970
 9836.5999  58940 159140 58280 -20 999000
 9836.9345  59000 159280 58330 -20 999000
 9837.2691  58860 158920 58210 -20 999030
 9837.5828  58550 158150 57950 -20 998890
 9837.9175  58290 157460 57690 -20 998500
 9838.2522  58290 157480 57720 -20 998260
 9838.566   58570 158240 58020 -20 997980
 9838.9007  58760 158820 58240 -20 997590
 9839.2355  58810 158960 58300 -20 997260
 9839.5702  58910 159250 58430 -20 997180
 9839.905   58900 159260 58440 -20 997180
 9840.2399  58860 159200 58430 -20 997340
 9840.5538  58890 159260 58460 -20 997600
 9840.8887  58850 159200 58470 -20 997800
 9841.2445  59290 160430 58920 -20 998010
 9841.5794  59200 160190 58840 -20 998260
 9841.8934  59220 160280 58890 -20 998520
 9842.2074  59150 160090 58830 -20 998890
 9842.5424  59310 160580 59030 -20 999240
 9842.8774  59300 160570 59030 -20 999300
 9843.2125  59210 160350 58970 -20 999400
 9843.5475  59100 160070 58870 -10 999440
 9843.8826  59130 160200 58930 -30 999400
 9844.1967  59120 160170 58940 -20 999400
 9844.5109  59450 161110 59290 -20 999480
 9844.8461  59210 160490 59080 -20 999610
 9845.1812  59190 160450 59090 -10 999590
 9845.5164  59040 160060 58940 -20 999700
 9845.8516  59170 160470 59120 -30 999690
 9846.1869  59810 162210 59760 -20 999400
 9846.5221  60380 163790 60360 -20 999020
 9846.8574  60660 164580 60670 -20 998650
 9847.1927  60640 164540 60660 -20 998310
 9847.5071  60470 164120 60520 -20 998140
 9847.8425  60480 164160 60560 -30 998100
 9848.1778  60290 163680 60380 -20 998120
 9848.4923  60270 163630 60370 -20 998100
 9848.8277  60360 163920 60500 -20 998150
 9849.1631  60230 163630 60410 -20 997990
 9849.4986  60070 163170 60250 -20 997770
 9849.8341  59980 162950 60180 -20 997680
 9850.1696  59860 162660 60080 -20 997560
 9850.5052  59830 162620 60070 -20 997240
 9850.8407  59710 162320 59980 -30 997020
 9851.1763  59700 162290 59980 -10 996740
 9851.5119  59600 162050 59910 -20 996380
 9851.8475  59630 162170 59950 -20 996100
 9852.1622  59570 162030 59930 -30 995900
 9852.4769  59490 161830 59860 -20 995590
 9852.8126  59440 161710 59830 -10 995460
 9853.1483  59380 161600 59790 -20 995360
 9853.4841  59470 161870 59920 -20 995370
 9853.8199  59410 161720 59870 -20 995180
 9854.1556  59130 160990 59620 -20 995250
 9854.4915  59170 161140 59670 -20 995310
 9854.8063  59010 160720 59540 -20 995180
 9855.1212  59210 161300 59770 -20 995210
 9855.4571  59860 163090 60430 -20 995290
 9855.793   60460 164750 61070 -20 995370
 9856.1289  60640 165270 61280 -20 995650
 9856.4649  60580 165110 61230 -20 995990
 9856.8008  60450 164800 61120 -20 996250
 9857.1368  60450 164840 61150 -20 996540
 9857.4729  60270 164340 60980 -20 997020
 9857.8089  60100 163920 60830 -10 997410
 9858.145   60200 164210 60960 -30 997940
 9858.4601  60240 164360 61010 -20 998540
 9858.7752  60090 163980 60900 -20 998880
 9859.1113  60000 163770 60830 -20 999360
 9859.4475  60050 163890 60880 -20 999860
 9859.7836  60010 163860 60870 -20 999990
 9860.1199  59970 163740 60850 -20 999990
 9860.4561  60040 163980 60960 -20 1000000
 9860.7923  59900 163590 60830 -30 999990
 9861.1076  59830 163450 60780 -20 999990
 9861.4439  59910 163710 60890 -20 1000000
 9861.7802  59930 163760 60910 -20 999990
 9862.0956  59870 163640 60890 -20 999990
 9862.4319  59800 163480 60830 -20 1000000
 9862.7683  59810 163520 60870 -20 999990
 9863.1047  59730 163310 60800 -20 999990
 9863.4412  59630 163090 60740 -30 1000000
 9863.7776  59610 163050 60730 -10 999990
 9864.1141  59590 163030 60740 -30 999990
 9864.4506  59560 162970 60730 -20 1000000
 9864.7661  59450 162700 60650 -20 999990
 9865.1027  59450 162730 60660 -20 999990
 9865.4393  59380 162550 60610 -20 1000000
 9865.7548  59550 163030 60810 -20 999990
 9866.0914  59720 163540 61010 -20 999990
 9866.4281  59810 163790 61120 -20 1000000
 9866.7648  59940 164180 61260 -20 999990
 9867.1015  59950 164250 61320 -30 999990
 9867.4382  59910 164170 61290 -20 999550
 9867.7749  59930 164220 61320 -20 998800
 9868.1117  59900 164200 61320 -20 998510
 9868.4485  60060 164660 61500 -20 998290
 9868.7853  60220 165100 61690 -20 997980
 9869.1221  60220 165130 61700 -20 997770
 9869.4379  60180 165040 61690 -30 997500
 9869.7537  60050 164730 61590 -20 997050
 9870.0906  60020 164650 61570 -10 996940
 9870.4276  59980 164590 61540 -30 996950
 9870.7645  59890 164380 61490 -20 997130
 9871.1015  59820 164170 61420 -20 997230
 9871.4174  59840 164270 61470 -20 997440
 9871.7544  59800 164210 61460 -20 997600
 9872.0915  59850 164360 61540 -20 997830
 9872.4075  59890 164510 61600 -20 997940
 9872.7446  59810 164290 61530 -20 998080
 9873.0817  59900 164590 61660 -20 998360
 9873.4188  59980 164810 61750 -20 998680
 9873.756   60160 165350 61980 -20 998830
 9874.0932  60120 165250 61940 -20 998980
 9874.4304  60200 165520 62060 -20 998730
 9874.7676  60130 165360 62020 -20 998540
 9875.0838  60220 165600 62120 -20 998580
 9875.4     60220 165640 62150 -20 998990
 9875.7372  60400 166170 62350 -30 999190
 9876.0956  60440 166320 62420 -20 999440
 9876.4541  60480 166390 62470 -20 999620
 9876.7704  60680 167020 62710 -20 999650
 9877.0867  60690 167100 62760 -20 999850
 9877.4241  60720 167160 62790 -20 999920
 9877.7615  60840 167530 62940 -20 999860
 9878.099   60940 167850 63070 -20 999830
 9878.4154  60930 167850 63090 -20 999730
 9878.7529  61000 168040 63170 -20 999430
 9879.1115  60860 167700 63070 -20 999150
 9879.428   60830 167650 63050 -30 999060
 9879.7444  60870 167800 63120 -20 999030
 9880.082   60850 167760 63120 -20 999120
 9880.4197  60790 167600 63070 -20 999210
 9880.7573  60660 167300 62970 -20 999380
 9881.095   60610 167170 62940 -20 999460
 9881.4327  60720 167490 63080 -20 999380
 9881.7704  60690 167470 63070 -20 999450
 9882.1081  60720 167550 63110 -20 999360
 9882.4248  60750 167670 63180 -20 999390
 9882.7626  60770 167770 63230 -20 999360
 9883.1004  60820 167910 63290 -20 999320
 9883.4171  60850 168030 63350 -20 999380
 9883.7549  60870 168090 63390 -20 999340
 9884.0928  60950 168360 63510 -30 999410
 9884.4307  60940 168370 63510 -20 999450
 9884.7687  61040 168680 63650 -20 999540
 9885.1066  60950 168430 63570 -20 999570
 9885.4446  60860 168210 63500 -20 999590
 9885.7826  60700 167810 63350 -20 999760
 9886.1206  60670 167750 63350 -20 999720
 9886.4375  60790 168120 63510 -20 999760
 9886.7544  61210 169300 63960 -30 999850
 9887.0925  61600 170390 64390 -20 999880
 9887.4306  61730 170800 64540 -20 999950
 9887.7688  61640 170590 64490 -20 999980
 9888.1069  61600 170490 64460 -20 999990
 9888.4451  61540 170350 64420 -20 1000000
 9888.7833  61500 170280 64410 -20 999990
 9889.1216  61400 170020 64330 -30 999990
 9889.4387  61370 169950 64310 -20 999910
 9889.7558  61350 169940 64320 -20 999990
 9890.0941  61400 170110 64400 -20 999990
 9890.4324  61480 170330 64490 -20 1000000
 9890.7708  61630 170790 64670 -20 999990
 9891.1091  61710 171060 64790 -30 999990
 9891.4475  61710 171080 64810 -10 1000000
 9891.7859  61990 171870 65130 -30 999990
 9892.1244  62050 172060 65210 -20 999990
 9892.4417  62030 172040 65210 -20 1000000
 9892.7802  62070 172180 65280 -20 999990
 9893.1398  62010 172060 65250 -20 999990
 9893.4784  61970 171950 65220 -30 1000000
 9893.7958  61890 171760 65160 -20 999990
 9894.1132  61890 171780 65170 -20 999990
 9894.4518  61970 172050 65290 -20 1000000
 9894.7904  62140 172520 65480 -20 999990
 9895.1291  62180 172670 65550 -30 999990
 9895.4677  62190 172750 65600 -20 1000000
 9895.7853  62170 172670 65570 -20 999990
 9896.124   62190 172770 65640 -20 999990
 9896.4839  62290 173100 65750 -20 1000000
 9896.8015  62300 173150 65810 -20 999990
 9897.1191  62320 173220 65840 -20 999990
 9897.4579  62450 173600 66000 -30 1000000
 9897.7968  62570 173960 66140 -20 999990
 9898.1356  62700 174360 66320 -20 999990
 9898.4745  62700 174410 66340 -20 1000000
 9898.8134  62680 174370 66340 -20 999990
 9899.1523  62650 174280 66310 -20 999990
 9899.4913  62650 174330 66350 -30 1000000
 9899.8091  62630 174330 66350 -20 999990
 9900.1481  62590 174220 66330 -20 999990
 9900.4871  62570 174180 66320 -20 1000000
 9900.805   62520 174090 66300 -20 999990
 9901.144   62390 173750 66200 -20 999990
 9901.4831  62440 173910 66270 -30 1000000
 9901.8223  62350 173690 66180 -20 999990
 9902.1614  62350 173720 66220 -20 999990
 9902.4794  62270 173500 66140 -20 999100
 9902.7973  62250 173500 66160 -30 998850
 9903.1366  62250 173540 66180 -10 998420
 9903.497   62300 173680 66240 -20 998150
 9903.8362  62280 173670 66260 -30 997940
 9904.1543  62330 173840 66330 -20 997560
 9904.4936  62400 174050 66430 -20 997100
 9904.833   62440 174190 66490 -20 996680
 9905.1723  62550 174540 66640 -20 996410
 9905.5117  62570 174570 66670 -20 996310
 9905.8511  62530 174550 66680 -20 996240
 9906.1905  62550 174600 66710 -20 996180
 9906.5087  62620 174840 66820 -30 996100
 9906.827   62830 175430 67050 -20 996030
 9907.1665  62840 175490 67080 -30 995970
 9907.506   62970 175910 67260 -20 996020
 9907.8455  63110 176320 67430 -20 995970
 9908.1851  63350 177020 67710 -20 995980
 9908.5247  63510 177500 67910 -20 995990
 9908.8643  63660 177920 68100 -20 995990
 9909.2039  63680 178010 68140 -30 996180
 9909.5436  63570 177710 68030 -20 996200
 9909.8833  63500 177580 68000 -20 996060
 9910.2017  63500 177570 68000 -20 995800
 9910.5202  63360 177240 67900 -20 995670
 9910.86    63340 177200 67870 -20 995730
 9911.1998  63360 177300 67930 -20 995850
 9911.5395  63360 177320 67960 -30 995770
 9911.8794  63440 177570 68070 -20 995530
 9912.2192  63490 177720 68140 -20 995470
 9912.5591  63580 178010 68260 -20 995480
 9912.899   63560 178000 68270 -20 995410
 9913.2389  63560 178010 68290 -20 995380
 9913.5788  63520 177940 68270 -30 995190
 9913.8975  63510 177920 68280 -20 995230
 9914.2163  63640 178320 68440 -20 995270
 9914.5563  63780 178720 68630 -20 995150
 9914.8963  63750 178680 68610 -30 994970
 9915.2364  63870 179060 68780 -20 995000
 9915.5765  63930 179250 68860 -20 995340
 9915.9166  63970 179360 68910 -20 995530
 9916.2567  63950 179360 68950 -20 995630
 9916.5968  64020 179580 69020 -30 995780
 9916.9158  64170 180030 69220 -20 996000
 9917.2347  64280 180390 69380 -20 996210
 9917.5962  64240 180270 69340 -20 996240
 9917.9364  64210 180240 69340 -20 996170
 9918.2554  64220 180290 69370 -20 996210
 9918.5957  64150 180130 69330 -30 996210
 9918.936   64130 180080 69310 -10 996030
 9919.2764  64170 180220 69400 -30 995950
 9919.6167  64240 180470 69480 -20 996020
 9919.9571  64190 180320 69450 -20 996230
 9920.2975  64240 180510 69540 -20 996600
 9920.6167  64300 180680 69620 -30 996800
 9920.9359  64530 181380 69900 -20 996940
 9921.2976  64630 181670 70030 -20 997120
 9921.6381  64670 181800 70100 -20 997320
 9921.9574  64700 181930 70170 -30 997380
 9922.2979  64720 182030 70200 -20 997470
 9922.6385  64740 182120 70260 -20 997640
 9922.9791  64710 182030 70250 -30 997990
 9923.3197  64710 182060 70270 -20 998060
 9923.6604  64830 182450 70420 -20 998020
 9924.001   64930 182740 70560 -20 997950
 9924.3204  64920 182760 70570 -30 998000
 9924.6398  65140 183400 70840 -20 998010
 9924.9806  65180 183560 70920 -20 997890
 9925.3213  65140 183440 70880 -20 997890
 9925.6621  65150 183520 70930 -30 997980
 9926.0029  65180 183630 70990 -20 998100
 9926.3438  65000 183140 70790 -30 998200
 9926.6846  65530 184660 71400 -20 998440
 9927.0042  65590 184870 71510 -20 998650
 9927.3451  65740 185310 71680 -20 998820
 9927.686   65860 185670 71850 -20 998880
 9928.027   65860 185680 71870 -20 998860
 9928.368   65740 185410 71760 -20 998820
 9928.6877  65700 185280 71720 -30 998830
 9929.0287  65980 186120 72060 -20 998810
 9929.3697  65930 185990 72030 -20 998970
 9929.7108  66070 186440 72230 -20 998900
 9930.0519  66190 186800 72370 -20 998690
 9930.393   66120 186610 72310 -30 998410
 9930.7341  65990 186300 72200 -20 998320
 9931.054   66070 186550 72320 -30 998430
 9931.3739  66140 186770 72430 -20 998460
 9931.7151  66160 186840 72440 -20 998560
 9932.0563  66140 186840 72480 -20 998630
 9932.3976  66360 187480 72730 -30 998620
 9932.7388  66310 187350 72710 -20 998760
 9933.0801  66240 187230 72670 -20 999150
 9933.4215  66320 187460 72770 -20 999570
 9933.7628  66240 187270 72700 -20 999890
 9934.1042  66200 187170 72690 -20 999990
 9934.4456  66150 187070 72670 -30 999990
 9934.7657  66260 187400 72800 -20 1000000
 9935.0858  66160 187150 72720 -20 999990
 9935.4273  66190 187290 72780 -30 999990
 9935.7688  66150 187150 72760 -20 999810
 9936.1103  66380 187870 73040 -20 999460
 9936.4518  66630 188590 73340 -20 999050
 9936.7934  66610 188580 73340 -30 998920
 9937.135   66600 188560 73350 -20 998860
 9937.4552  66870 189330 73670 -20 998590
 9937.7969  67160 190200 74020 -20 998180
 9938.1599  67210 190380 74100 -20 997780
 9938.4802  67160 190250 74070 -20 997390
 9938.8006  67120 190180 74060 -30 997090
 9939.1423  67130 190240 74100 -20 997070
 9939.4841  67120 190230 74100 -20 997090
 9939.8259  67090 190180 74100 -30 997000
 9940.1677  66990 189930 74020 -20 996860
 9940.5095  66900 189670 73930 -20 996710
 9940.8513  66800 189470 73840 -20 996550
 9941.1718  66630 188980 73690 -20 996450
 9941.4924  66760 189380 73850 -20 996300
 9941.8343  66910 189830 74050 -30 996260
 9942.1762  67350 191110 74570 -20 996220
 9942.5182  68430 194210 75790 -20 996160
 9942.8602  69120 196160 76580 -30 996180
 9943.2022  69360 196890 76880 -20 996070
 9943.5443  69460 197210 77010 -20 996010
 9943.8863  69550 197480 77130 -30 995900
 9944.2284  69610 197700 77230 -30 995870
 9944.5705  69660 197860 77310 -20 995790
 9944.9127  69720 198050 77390 -20 995570
 9945.2334  69530 197560 77220 -30 995420
 9945.5542  69520 197540 77220 -20 995220
 9945.8964  69450 197400 77190 -20 995000
 9946.2387  69470 197470 77220 -30 994630
 9946.5809  69430 197410 77220 -20 994300
 9946.9232  69520 197680 77330 -30 994070
 9947.2655  69450 197500 77290 -10 993880
 9947.5864  69420 197470 77280 -30 993650
 9947.9288  69320 197170 77190 -20 993600
 9948.2711  69370 197400 77280 -20 993840
 9948.5921  69310 197230 77240 -20 994310
 9948.9346  69270 197180 77230 -30 994860
 9949.277   69470 197760 77480 -30 995420
 9949.6195  69460 197760 77500 -20 995770
 9949.962   69500 197910 77570 -20 995940
 9950.3045  69510 197940 77580 -30 996050
 9950.647   69540 198100 77680 -20 996130
 9950.9896  69560 198180 77720 -30 996410
 9951.3322  69490 198000 77640 -20 996710
 9951.6748  69350 197640 77530 -20 996890
 9952.0174  69530 198170 77750 -30 997320
 9952.3387  69500 198130 77760 -20 997740
 9952.6599  69630 198530 77920 -30 997890
 9953.0026  69550 198340 77860 -20 997740
 9953.3454  69510 198240 77830 -30 997600
 9953.6881  69380 197890 77710 -20 997460
 9954.0309  69590 198550 77990 -20 997200
 9954.3737  69450 198150 77840 -30 996780
 9954.6951  69470 198260 77900 -20 996480
 9955.0165  69570 198560 78050 -30 996430
 9955.3594  69610 198700 78100 -20 996360
 9955.7023  69510 198430 78020 -30 996410
 9956.0452  69720 199100 78300 -20 996510
 9956.3881  69670 198980 78270 -30 996690
 9956.7311  69580 198740 78170 -20 996880
 9957.0741  69660 198990 78290 -20 996780
 9957.4171  69710 199190 78400 -30 996540
 9957.7601  69620 198940 78290 -20 996540
 9958.1032  69640 199020 78360 -20 996580
 9958.4463  69810 199560 78590 -30 996630
 9958.768   69680 199190 78450 -20 996750
 9959.0897  69600 199010 78400 -30 996830
 9959.4328  69730 199420 78570 -30 996890
 9959.776   69670 199270 78520 -20 996890
 9960.1192  69750 199520 78640 -20 996840
 9960.4624  69770 199600 78700 -30 997050
 9960.8057  69770 199650 78720 -20 997250
 9961.149   69790 199750 78780 -30 997150
 9961.4923  69800 199800 78810 -20 996840
 9961.8141  69650 199390 78660 -30 996790
 9962.1575  69450 198860 78480 -20 996630
 9962.5008  69090 197850 78090 -20 996340
 9962.8228  68820 197120 77800 -30 996370
 9963.1662  69140 198040 78170 -20 996420
 9963.5096  69930 200340 79110 -30 996380
 9963.8531  70610 202300 79890 -20 996280
 9964.1966  71720 205540 81180 -30 996210
 9964.5401  72380 207420 81940 -20 996150
 9964.8837  72410 207520 82000 -30 996300
 9965.2058  72500 207820 82140 -20 996440
 9965.5279  72490 207850 82160 -20 996430
 9965.893   72240 207150 81890 -30 996340
 9966.2581  72370 207570 82090 -30 996390
 9966.5802  72250 207260 81970 -20 996410
 9966.9025  72240 207250 82000 -30 996550
 9967.2462  72210 207210 81980 -30 996610
 9967.5899  72170 207120 81960 -20 996390
 9967.9336  72100 206950 81920 -20 996280
 9968.2774  72030 206780 81870 -30 996430
 9968.6212  71990 206690 81850 -30 996490
 9968.9651  71990 206700 81860 -20 996490
 9969.3089  71930 206610 81840 -20 996470
 9969.6313  71760 206110 81660 -30 996380
 9969.9537  71880 206500 81830 -30 996390
 9970.2976  71700 206040 81670 -20 996400
 9970.6416  71720 206110 81690 -30 996380
 9970.9855  71770 206280 81780 -20 996450
 9971.3295  71730 206210 81780 -30 996560
 9971.6735  71590 205850 81640 -30 996670
 9972.0176  71640 205980 81720 -20 996710
 9972.3617  71600 205920 81720 -30 996920
 9972.6842  71570 205860 81700 -30 997040
 9973.0068  71410 205440 81550 -20 997190
 9973.351   71500 205720 81680 -20 997210
 9973.6951  71610 206060 81830 -30 997160
 9974.0393  72080 207470 82400 -30 997190
 9974.3835  72130 207610 82470 -30 997430
 9974.7278  72120 207650 82510 -20 997510
