XDAC V1.4 Datafile V1
"ti_w1002191.103" created on 3/11/10 at 12:10:20 AM on X-23A2
Diffraction element= Si (311).  Ring energy= 2.80 GeV
E0= 4966.00
NUM_REGIONS= 3
SRB= -30 -10 50 507
SRSS= 5 0.25 0.05k
SPP= 2 2 1k
Settling time= 0.20


Offsets= 121.60 84.20 92.40 0.00 0.00
Gains= 9.00 9.00 10.00 0.00 1.00
LaTiO2N yellow, precursor=La2TiO5
33% N2 in I0, N2 in It&Ir, Ti foil reference

--------------------------------------------------------------------------------
        Energy            I0            It            Ir         Iring       IntTime
    4935.99912     3951.8000      891.6000      876.2000    50758.0000        2.0000
    4940.99987     4001.8000      911.6000      898.2000    50757.0000        2.0000
    4945.99943     4057.8000      932.6000      925.2000    50758.0000        2.0000
    4950.99965     4113.8000      954.6000      946.2000    50752.0000        2.0000
    4956.00031     4163.8000      976.6000      972.2000    50746.0000        2.0000
    4956.24923     4169.8000      977.6000      974.2000    50751.0000        2.0000
    4956.50029     4171.8000      978.6000      973.2000    50750.0000        2.0000
    4956.74932     4174.8000      979.6000      974.2000    50744.0000        2.0000
    4957.00047     4178.8000      980.6000      977.2000    50746.0000        2.0000
    4957.24961     4182.8000      983.6000      975.2000    50745.0000        2.0000
    4957.50087     4185.8000      983.6000      977.2000    50737.0000        2.0000
    4957.75011     4189.8000      983.6000      978.2000    50744.0000        2.0000
    4957.99940     4189.8000      984.6000      981.2000    50738.0000        2.0000
    4958.25082     4191.8000      985.6000      978.2000    50739.0000        2.0000
    4958.50022     4194.8000      986.6000      979.2000    50740.0000        2.0000
    4958.74967     4195.8000      986.6000      982.2000    50736.0000        2.0000
    4958.99917     4195.8000      989.6000      985.2000    50734.0000        2.0000
    4959.25080     4195.8000      989.6000      983.2000    50739.0000        2.0000
    4959.50040     4196.8000      988.6000      984.2000    50729.0000        2.0000
    4959.75006     4197.8000      989.6000      984.2000    50732.0000        2.0000
    4959.99977     4199.8000      989.6000      982.2000    50734.0000        2.0000
    4960.24953     4200.8000      991.6000      986.2000    50728.0000        2.0000
    4960.49934     4202.8000      990.6000      984.2000    50728.0000        2.0000
    4960.74920     4204.8000      992.6000      986.2000    50728.0000        2.0000
    4960.99912     4206.8000      993.6000      985.2000    50724.0000        2.0000
    4961.24909     4204.8000      993.6000      985.2000    50727.0000        2.0000
    4961.49911     4206.8000      993.6000      987.2000    50718.0000        2.0000
    4961.74918     4206.8000      993.6000      984.2000    50720.0000        2.0000
    4961.99931     4209.8000      996.6000      986.2000    50723.0000        2.0000
    4962.24948     4207.8000      996.6000      991.2000    50715.0000        2.0000
    4962.49971     4208.8000      996.6000      993.2000    50716.0000        2.0000
    4962.74999     4208.8000      997.6000      991.2000    50719.0000        2.0000
    4963.00033     4211.8000      998.6000      992.2000    50711.0000        2.0000
    4963.25071     4213.8000      999.6000      990.2000    50714.0000        2.0000
    4963.49906     4213.8000      999.6000      987.2000    50708.0000        2.0000
    4963.74955     4214.8000      999.6000      989.2000    50710.0000        2.0000
    4964.00010     4216.8000     1000.6000      986.2000    50713.0000        2.0000
    4964.25069     4217.8000     1000.6000      987.2000    50707.0000        2.0000
    4964.49925     4217.8000     1001.6000      983.2000    50705.0000        2.0000
    4964.74994     4215.8000     1001.6000      985.2000    50711.0000        2.0000
    4965.00069     4217.8000     1002.6000      987.2000    50700.0000        2.0000
    4965.24941     4219.8000     1002.6000      980.2000    50702.0000        2.0000
    4965.50026     4220.8000     1004.6000      978.2000    50702.0000        2.0000
    4965.74907     4219.8000     1005.6000      974.2000    50697.0000        2.0000
    4966.00003     4220.8000     1004.6000      965.2000    50700.0000        2.0000
    4966.25104     4221.8000     1004.6000      960.2000    50697.0000        2.0000
    4966.50001     4220.8000     1005.6000      946.2000    50691.0000        2.0000
    4966.74903     4222.8000     1005.6000      927.2000    50700.0000        2.0000
    4967.00020     4222.8000     1006.6000      894.2000    50692.0000        2.0000
    4967.24932     4225.8000     1007.6000      837.2000    50688.0000        2.0000
    4967.50059     4227.8000     1007.6000      765.2000    50697.0000        2.0000
    4967.74982     4225.8000     1007.6000      703.2000    50689.0000        2.0000
    4967.99910     4228.8000     1007.6000      670.2000    50688.0000        2.0000
    4968.25053     4228.8000     1007.6000      668.2000    50690.0000        2.0000
    4968.49991     4231.8000     1007.6000      684.2000    50680.0000        2.0000
    4968.74934     4230.8000     1006.6000      709.2000    50691.0000        2.0000
    4969.00093     4229.8000     1004.6000      735.2000    50681.0000        2.0000
    4969.25046     4231.8000     1001.6000      753.2000    50679.0000        2.0000
    4969.50005     4234.8000     1001.6000      766.2000    50685.0000        2.0000
    4969.74969     4236.8000     1002.6000      773.2000    50679.0000        2.0000
    4969.99938     4234.8000     1002.6000      769.2000    50674.0000        2.0000
    4970.24913     4237.8000     1001.6000      766.2000    50680.0000        2.0000
    4970.50102     4237.8000      997.6000      752.2000    50675.0000        2.0000
    4970.75087     4238.8000      990.6000      730.2000    50676.0000        2.0000
    4971.00076     4238.8000      982.6000      713.2000    50674.0000        2.0000
    4971.25071     4239.8000      974.6000      697.2000    50667.0000        2.0000
    4971.50071     4238.8000      969.6000      685.2000    50673.0000        2.0000
    4971.75077     4241.8000      967.6000      671.2000    50672.0000        2.0000
    4972.00087     4239.8000      968.6000      666.2000    50663.0000        2.0000
    4972.25102     4242.8000      975.6000      664.2000    50670.0000        2.0000
    4972.49913     4242.8000      978.6000      662.2000    50666.0000        2.0000
    4972.74939     4244.8000      981.6000      660.2000    50663.0000        2.0000
    4972.99970     4245.8000      980.6000      658.2000    50665.0000        2.0000
    4973.25006     4246.8000      979.6000      654.2000    50659.0000        2.0000
    4973.50047     4245.8000      975.6000      647.2000    50660.0000        2.0000
    4973.75093     4243.8000      970.6000      640.2000    50661.0000        2.0000
    4973.99934     4246.8000      967.6000      630.2000    50653.0000        2.0000
    4974.24991     4245.8000      965.6000      621.2000    50657.0000        2.0000
    4974.50053     4245.8000      965.6000      608.2000    50658.0000        2.0000
    4974.74909     4245.8000      966.6000      597.2000    50653.0000        2.0000
    4974.99981     4242.8000      965.6000      585.2000    50652.0000        2.0000
    4975.25058     4239.8000      966.6000      572.2000    50651.0000        2.0000
    4975.49930     4238.8000      968.6000      560.2000    50645.0000        2.0000
    4975.75018     4233.8000      970.6000      550.2000    50652.0000        2.0000
    4975.99899     4232.8000      971.6000      542.2000    50642.0000        2.0000
    4976.24997     4223.8000      972.6000      531.2000    50646.0000        2.0000
    4976.50100     4211.8000      973.6000      520.2000    50648.0000        2.0000
    4976.74997     4202.8000      973.6000      510.2000    50639.0000        2.0000
    4976.99899     4185.8000      972.6000      501.2000    50639.0000        2.0000
    4977.25018     4162.8000      969.6000      492.2000    50641.0000        2.0000
    4977.49930     4129.8000      964.6000      478.2000    50634.0000        2.0000
    4977.75059     4073.8000      952.6000      467.2000    50643.0000        2.0000
    4977.99981     3943.8000      923.6000      446.2000    50634.0000        2.0000
    4978.24909     3557.8000      832.6000      401.2000    50635.0000        2.0000
    4978.50053     1911.8000      454.6000      229.2000    50637.0000        2.0000
    4978.74991     2689.8000      631.6000      299.2000    50629.0000        2.0000
    4978.99934     4543.8000     1055.6000      470.2000    50630.0000        2.0000
    4979.25093     4621.8000     1069.6000      469.2000    50636.0000        2.0000
    4979.50047     4563.8000     1051.6000      456.2000    50624.0000        2.0000
    4979.75005     4520.8000     1035.6000      444.2000    50630.0000        2.0000
    4979.99968     4495.8000     1024.6000      436.2000    50626.0000        2.0000
    4980.24937     4476.8000     1013.6000      426.2000    50622.0000        2.0000
    4980.49910     4462.8000     1003.6000      417.2000    50624.0000        2.0000
    4980.75100     4451.8000      992.6000      411.2000    50620.0000        2.0000
    4981.00084     4444.8000      980.6000      402.2000    50618.0000        2.0000
    4981.25073     4441.8000      967.6000      391.2000    50625.0000        2.0000
    4981.50067     4435.8000      952.6000      387.2000    50614.0000        2.0000
    4981.75066     4432.8000      934.6000      380.2000    50614.0000        2.0000
    4982.00070     4430.8000      918.6000      371.2000    50614.0000        2.0000
    4982.25079     4429.8000      899.6000      362.2000    50613.0000        2.0000
    4982.50093     4428.8000      878.6000      354.2000    50616.0000        2.0000
    4982.74900     4425.8000      859.6000      344.2000    50613.0000        2.0000
    4982.99925     4426.8000      839.6000      338.2000    50608.0000        2.0000
    4983.24954     4427.8000      819.6000      327.2000    50615.0000        2.0000
    4983.49989     4425.8000      800.6000      321.2000    50607.0000        2.0000
    4983.75028     4427.8000      781.6000      314.2000    50604.0000        2.0000
    4984.00073     4426.8000      764.6000      307.2000    50606.0000        2.0000
    4984.24911     4427.8000      751.6000      300.2000    50604.0000        2.0000
    4984.49966     4428.8000      738.6000      294.2000    50601.0000        2.0000
    4984.75026     4430.8000      730.6000      292.2000    50606.0000        2.0000
    4985.00091     4433.8000      726.6000      288.2000    50594.0000        2.0000
    4985.24948     4432.8000      725.6000      285.2000    50603.0000        2.0000
    4985.50024     4432.8000      728.6000      287.2000    50597.0000        2.0000
    4985.75104     4436.8000      732.6000      286.2000    50592.0000        2.0000
    4985.99977     4436.8000      737.6000      288.2000    50597.0000        2.0000
    4986.25067     4436.8000      743.6000      292.2000    50594.0000        2.0000
    4986.49950     4440.8000      751.6000      293.2000    50591.0000        2.0000
    4986.75051     4441.8000      759.6000      295.2000    50595.0000        2.0000
    4986.99944     4445.8000      765.6000      300.2000    50585.0000        2.0000
    4987.25054     4445.8000      770.6000      302.2000    50592.0000        2.0000
    4987.49957     4447.8000      777.6000      306.2000    50590.0000        2.0000
    4987.75078     4450.8000      781.6000      308.2000    50581.0000        2.0000
    4987.99991     4449.8000      786.6000      311.2000    50586.0000        2.0000
    4988.24910     4452.8000      790.6000      314.2000    50584.0000        2.0000
    4988.50046     4452.8000      791.6000      319.2000    50578.0000        2.0000
    4988.74974     4455.8000      795.6000      318.2000    50584.0000        2.0000
    4988.99907     4457.8000      795.6000      321.2000    50579.0000        2.0000
    4989.25058     4458.8000      798.6000      321.2000    50578.0000        2.0000
    4989.50002     4462.8000      799.6000      325.2000    50578.0000        2.0000
    4989.74950     4466.8000      800.6000      328.2000    50574.0000        2.0000
    4989.99903     4467.8000      802.6000      326.2000    50575.0000        2.0000
    4990.25075     4470.8000      804.6000      327.2000    50576.0000        2.0000
    4990.50039     4470.8000      807.6000      329.2000    50565.0000        2.0000
    4990.75007     4471.8000      809.6000      329.2000    50573.0000        2.0000
    4990.99980     4475.8000      812.6000      329.2000    50574.0000        2.0000
    4991.24959     4477.8000      815.6000      332.2000    50567.0000        2.0000
    4991.49942     4478.8000      817.6000      333.2000    50570.0000        2.0000
    4991.74931     4477.8000      817.6000      332.2000    50567.0000        2.0000
    4991.99925     4481.8000      819.6000      332.2000    50562.0000        2.0000
    4992.24923     4482.8000      818.6000      332.2000    50568.0000        2.0000
    4992.49927     4483.8000      818.6000      332.2000    50557.0000        2.0000
    4992.74935     4488.8000      818.6000      332.2000    50560.0000        2.0000
    4992.99949     4489.8000      816.6000      336.2000    50561.0000        2.0000
    4993.24968     4490.8000      813.6000      332.2000    50556.0000        2.0000
    4993.49992     4494.8000      811.6000      333.2000    50558.0000        2.0000
    4993.75020     4496.8000      809.6000      332.2000    50556.0000        2.0000
    4994.00054     4501.8000      805.6000      331.2000    50549.0000        2.0000
    4994.25093     4502.8000      802.6000      331.2000    50555.0000        2.0000
    4994.49923     4502.8000      799.6000      329.2000    50548.0000        2.0000
    4994.74972     4506.8000      795.6000      329.2000    50549.0000        2.0000
    4995.00025     4508.8000      791.6000      327.2000    50551.0000        2.0000
    4995.25084     4513.8000      788.6000      324.2000    50546.0000        2.0000
    4995.49934     4515.8000      784.6000      323.2000    50547.0000        2.0000
    4995.75003     4514.8000      780.6000      319.2000    50551.0000        2.0000
    4996.00077     4517.8000      777.6000      322.2000    50541.0000        2.0000
    4996.24942     4519.8000      775.6000      323.2000    50543.0000        2.0000
    4996.50026     4521.8000      772.6000      321.2000    50547.0000        2.0000
    4996.74900     4522.8000      770.6000      319.2000    50540.0000        2.0000
    4996.99994     4526.8000      769.6000      315.2000    50540.0000        2.0000
    4997.25093     4529.8000      769.6000      316.2000    50539.0000        2.0000
    4997.49983     4532.8000      768.6000      316.2000    50537.0000        2.0000
    4997.75092     4532.8000      769.6000      314.2000    50541.0000        2.0000
    4997.99991     4537.8000      771.6000      315.2000    50532.0000        2.0000
    4998.24896     4539.8000      771.6000      310.2000    50531.0000        2.0000
    4998.50020     4542.8000      773.6000      312.2000    50538.0000        2.0000
    4998.74934     4544.8000      775.6000      310.2000    50527.0000        2.0000
    4999.00069     4546.8000      777.6000      309.2000    50532.0000        2.0000
    4999.24993     4552.8000      780.6000      307.2000    50530.0000        2.0000
    4999.49922     4553.8000      781.6000      307.2000    50524.0000        2.0000
    4999.75071     4555.8000      783.6000      306.2000    50527.0000        2.0000
    5000.00011     4557.8000      785.6000      304.2000    50522.0000        2.0000
    5000.24955     4560.8000      786.6000      302.2000    50521.0000        2.0000
    5000.49904     4562.8000      790.6000      304.2000    50527.0000        2.0000
    5000.75073     4564.8000      791.6000      300.2000    50516.0000        2.0000
    5001.00033     4569.8000      795.6000      300.2000    50520.0000        2.0000
    5001.24997     4573.8000      796.6000      298.2000    50521.0000        2.0000
    5001.49966     4573.8000      798.6000      298.2000    50515.0000        2.0000
    5001.74940     4575.8000      799.6000      298.2000    50517.0000        2.0000
    5001.99919     4578.8000      802.6000      299.2000    50517.0000        2.0000
    5002.24903     4581.8000      804.6000      299.2000    50508.0000        2.0000
    5002.50107     4583.8000      806.6000      300.2000    50517.0000        2.0000
    5002.75101     4586.8000      809.6000      301.2000    50507.0000        2.0000
    5003.00100     4588.8000      811.6000      300.2000    50508.0000        2.0000
    5003.25104     4590.8000      814.6000      303.2000    50509.0000        2.0000
    5003.49897     4593.8000      817.6000      304.2000    50505.0000        2.0000
    5003.74911     4594.8000      819.6000      305.2000    50504.0000        2.0000
    5003.99929     4596.8000      822.6000      305.2000    50510.0000        2.0000
    5004.24953     4601.8000      824.6000      307.2000    50498.0000        2.0000
    5004.49982     4602.8000      828.6000      307.2000    50505.0000        2.0000
    5004.75015     4604.8000      832.6000      310.2000    50499.0000        2.0000
    5005.00054     4608.8000      835.6000      311.2000    50498.0000        2.0000
    5005.25097     4609.8000      837.6000      313.2000    50500.0000        2.0000
    5005.49930     4614.8000      840.6000      314.2000    50499.0000        2.0000
    5005.74983     4615.8000      845.6000      314.2000    50491.0000        2.0000
    5006.00042     4616.8000      848.6000      314.2000    50501.0000        2.0000
    5006.25105     4620.8000      849.6000      316.2000    50491.0000        2.0000
    5006.49957     4621.8000      853.6000      317.2000    50487.0000        2.0000
    5006.75031     4622.8000      855.6000      318.2000    50492.0000        2.0000
    5006.99893     4625.8000      859.6000      319.2000    50489.0000        2.0000
    5007.24976     4630.8000      861.6000      321.2000    50485.0000        2.0000
    5007.50064     4631.8000      863.6000      325.2000    50490.0000        2.0000
    5007.74941     4633.8000      866.6000      327.2000    50480.0000        2.0000
    5008.00039     4637.8000      869.6000      329.2000    50488.0000        2.0000
    5008.24926     4640.8000      873.6000      329.2000    50483.0000        2.0000
    5008.50034     4641.8000      876.6000      330.2000    50477.0000        2.0000
    5008.74930     4646.8000      878.6000      334.2000    50484.0000        2.0000
    5009.00048     4645.8000      881.6000      336.2000    50479.0000        2.0000
    5009.24954     4648.8000      882.6000      340.2000    50477.0000        2.0000
    5009.50082     4653.8000      884.6000      342.2000    50481.0000        2.0000
    5009.74998     4655.8000      887.6000      344.2000    50470.0000        2.0000
    5009.99919     4654.8000      889.6000      346.2000    50476.0000        2.0000
    5010.25062     4658.8000      891.6000      348.2000    50474.0000        2.0000
    5010.49993     4661.8000      893.6000      350.2000    50468.0000        2.0000
    5010.74929     4664.8000      895.6000      355.2000    50474.0000        2.0000
    5011.00086     4666.8000      897.6000      358.2000    50470.0000        2.0000
    5011.25032     4668.8000      898.6000      360.2000    50465.0000        2.0000
    5011.49982     4668.8000      901.6000      362.2000    50470.0000        2.0000
    5011.74938     4673.8000      904.6000      363.2000    50466.0000        2.0000
    5011.99898     4675.8000      907.6000      367.2000    50465.0000        2.0000
    5012.25080     4680.8000      908.6000      370.2000    50466.0000        2.0000
    5012.50051     4678.8000      911.6000      369.2000    50460.0000        2.0000
    5012.75026     4681.8000      914.6000      372.2000    50462.0000        2.0000
    5013.00005     4685.8000      917.6000      375.2000    50462.0000        2.0000
    5013.24990     4688.8000      919.6000      375.2000    50454.0000        2.0000
    5013.49980     4689.8000      921.6000      378.2000    50461.0000        2.0000
    5013.74975     4692.8000      924.6000      380.2000    50456.0000        2.0000
    5013.99974     4692.8000      925.6000      381.2000    50454.0000        2.0000
    5014.24979     4695.8000      927.6000      381.2000    50456.0000        2.0000
    5014.49988     4698.8000      930.6000      383.2000    50449.0000        2.0000
    5014.75002     4702.8000      931.6000      385.2000    50449.0000        2.0000
    5015.00022     4704.8000      934.6000      388.2000    50454.0000        2.0000
    5015.25046     4706.8000      935.6000      386.2000    50444.0000        2.0000
    5015.50075     4708.8000      939.6000      388.2000    50446.0000        2.0000
    5015.75108     4711.8000      940.6000      389.2000    50449.0000        2.0000
    5017.38929     8674.3632     1741.7334      727.6148    92639.0000        3.6730
    5018.79826     8814.2832     1772.5234      746.9948    93898.0000        3.7230
    5020.22626     8959.2032     1802.3134      764.3748    95151.0000        3.7730
    5021.67334     9109.1232     1833.1034      780.7548    96407.0000        3.8230
    5023.13957     9263.0432     1866.8934      805.1348    97663.0000        3.8730
    5024.62501     9415.9632     1896.6834      821.5148    98922.0000        3.9230
    5026.12753     9573.8832     1928.4734      838.8948   100174.0000        3.9730
    5027.65157     9736.8032     1962.2634      851.2748   101433.0000        4.0230
    5029.19281     9900.7232     2001.0534      865.6548   102685.0000        4.0730
    5030.75570    10068.6432     2040.8434      873.0348   103943.0000        4.1230
    5032.33592    10232.5632     2077.6334      882.4148   105198.0000        4.1730
    5033.93351    10401.4832     2120.4234      886.7948   106458.0000        4.2230
    5035.55295    10576.4032     2160.2134      880.1748   107708.0000        4.2730
    5037.18991    10757.3232     2195.0034      875.5548   108961.0000        4.3230
    5038.84664    10935.2432     2226.7934      869.9348   110217.0000        4.3730
    5040.52101    11107.1632     2257.5834      874.3148   111477.0000        4.4230
    5042.21751    11291.0832     2299.3734      884.6948   112726.0000        4.4730
    5043.92955    11465.0032     2348.1634      911.0748   113988.0000        4.5230
    5045.66163    11646.9232     2402.9534      934.4548   115233.0000        4.5730
    5047.41384    11818.8432     2455.7434      967.8348   116494.0000        4.6230
    5049.18625    11931.7632     2488.5334      997.2148   117741.0000        4.6730
    5050.97444    12155.6832     2534.3234     1035.5948   119003.0000        4.7230
    5052.78297    12395.6032     2578.1134     1077.9748   120249.0000        4.7730
    5054.61190    12575.5232     2607.9034     1115.3548   121501.0000        4.8230
    5056.45906    12757.4432     2643.6934     1154.7348   122757.0000        4.8730
    5058.32452    12942.3632     2682.4834     1188.1148   124002.0000        4.9230
    5060.21060    13131.2832     2730.2734     1213.4948   125263.0000        4.9730
    5062.11287    13313.2032     2782.0634     1236.8748   126509.0000        5.0230
    5064.03590    13491.1232     2836.8534     1263.2548   127766.0000        5.0730
    5065.97978    13678.0432     2897.6434     1300.6348   129016.0000        5.1230
    5067.94005    13916.9632     2967.4334     1340.0148   130268.0000        5.1730
    5069.92131    14118.8832     3027.2234     1379.3948   131518.0000        5.2230
    5071.91910    14323.8032     3079.0134     1412.7748   132770.0000        5.2730
    5073.93804    14531.7232     3134.8034     1446.1548   134019.0000        5.3230
    5075.97592    14730.6432     3193.5934     1470.5348   135274.0000        5.3730
    5078.03282    14935.5632     3259.3834     1496.9148   136523.0000        5.4230
    5080.10882    15145.4832     3327.1734     1512.2948   137773.0000        5.4730
    5082.20169    15339.4032     3404.9634     1527.6748   139025.0000        5.5230
    5084.31610    15545.3232     3481.7534     1538.0548   140266.0000        5.5730
    5086.44984    15766.2432     3555.5434     1542.4348   141520.0000        5.6230
    5088.60067    15984.1632     3621.3334     1545.8148   142774.0000        5.6730
    5090.77097    16205.0832     3685.1234     1547.1948   144015.0000        5.7230
    5092.96083    16421.0032     3748.9134     1570.5748   145267.0000        5.7730
    5095.17030    16649.9232     3816.7034     1603.9548   146520.0000        5.8230
    5097.39718    16877.8432     3884.4934     1659.3348   147758.0000        5.8730
    5099.64615    17092.7632     3949.2834     1732.7148   149015.0000        5.9230
    5101.91035    17325.6832     4017.0734     1815.0948   150265.0000        5.9730
    5104.19680    17567.6032     4091.8634     1905.4748   151508.0000        6.0230
    5106.50096    17805.5232     4166.6534     1981.8548   152754.0000        6.0730
    5108.82288    18043.4432     4236.4434     2038.2348   154008.0000        6.1230
    5111.16498    18281.3632     4308.2334     2081.6148   155257.0000        6.1730
    5113.52733    18518.2832     4382.0234     2120.9948   156495.0000        6.2230
    5115.90769    18759.2032     4455.8134     2158.3748   157741.0000        6.2730
    5118.30613    19011.1232     4533.6034     2199.7548   158992.0000        6.3230
    5120.72506    19256.0432     4606.3934     2243.1348   160239.0000        6.3730
    5123.16223    19504.9632     4688.1834     2288.5148   161487.0000        6.4230
    5125.62007    19754.8832     4765.9734     2335.8948   162723.0000        6.4730
    5128.09393    20007.8032     4848.7634     2394.2748   163969.0000        6.5230
    5130.58862    20251.7232     4930.5534     2444.6548   165215.0000        6.5730
    5133.10423    20493.6432     5014.3434     2493.0348   166461.0000        6.6230
    5135.63609    20727.5632     5097.1334     2541.4148   167708.0000        6.6730
    5138.18903    20962.4832     5183.9234     2580.7948   168950.0000        6.7230
    5140.75838    21200.4032     5272.7134     2610.1748   170198.0000        6.7730
    5143.34897    21442.3232     5358.5034     2641.5548   171446.0000        6.8230
    5145.95851    21686.2432     5444.2934     2663.9348   172682.0000        6.8730
    5148.58468    21940.1632     5526.0834     2687.3148   173924.0000        6.9230
    5151.23235    22191.0832     5613.8734     2718.6948   175164.0000        6.9730
    5153.89920    22468.0032     5710.6634     2768.0748   176410.0000        7.0230
    5156.58292    22737.9232     5812.4534     2847.4548   177651.0000        7.0730
    5159.28840    23025.8432     5916.2434     2924.8348   178898.0000        7.1230
    5162.01089    23325.7632     6022.0334     3016.2148   180141.0000        7.1730
    5164.75289    23593.6832     6120.8234     3089.5948   181376.0000        7.2230
    5167.51449    23893.6032     6231.6134     3172.9748   182620.0000        7.2730
    5170.29576    24177.5232     6351.4034     3254.3548   183855.0000        7.3230
    5173.09437    24461.4432     6467.1934     3346.7348   185104.0000        7.3730
    5175.91281    24748.3632     6581.9834     3449.1148   186334.0000        7.4230
    5178.75118    25050.2832     6702.7734     3540.4948   187578.0000        7.4730
    5181.60711    25384.2032     6829.5634     3644.8748   188808.0000        7.5230
    5184.48313    25693.1232     6950.3534     3723.2548   190049.0000        7.5730
    5187.37686    25969.0432     7060.1434     3793.6348   191286.0000        7.6230
    5190.29086    26253.9632     7171.9334     3858.0148   192529.0000        7.6730
    5193.22520    26575.8832     7300.7234     3939.3948   193767.0000        7.7230
    5196.17750    26886.8032     7422.5134     4012.7748   195006.0000        7.7730
    5199.14783    27221.7232     7551.3034     4083.1548   196244.0000        7.8230
    5202.13628    27567.6432     7688.0934     4161.5348   197479.0000        7.8730
    5205.14540    27893.5632     7821.8834     4231.9148   198723.0000        7.9230
    5208.17528    28228.4832     7958.6734     4297.2948   199959.0000        7.9730
    5211.22103    28551.4032     8100.4634     4369.6748   201190.0000        8.0230
    5214.28771    28896.3232     8236.2534     4437.0548   202423.0000        8.0730
    5217.37290    29219.2432     8371.0434     4526.4348   203661.0000        8.1230
    5220.47669    29572.1632     8513.8334     4626.8148   204897.0000        8.1730
    5223.59915    29887.0832     8651.6234     4719.1948   205624.0000        8.2230
    5226.74288    30219.0032     8788.4134     4822.5748   207365.0000        8.2730
    5229.90292    30551.9232     8929.2034     4923.9548   208599.0000        8.3230
    5233.08441    30904.8432     9083.9934     5027.3348   209835.0000        8.3730
    5236.28489    31247.7632     9243.7834     5143.7148   211074.0000        8.4230
    5239.50191    31600.6832     9408.5734     5271.0948   212304.0000        8.4730
    5242.74064    32002.6032     9591.3634     5409.4748   213539.0000        8.5230
    5245.99605    32384.5232     9758.1534     5544.8548   214770.0000        8.5730
    5249.27333    32752.4432     9926.9434     5680.2348   215993.0000        8.6230
    5252.56746    33119.3632    10094.7334     5822.6148   217231.0000        8.6730
    5255.88106    33470.2832    10251.5234     5956.9948   218456.0000        8.7230
    5259.21423    33827.2032    10414.3134     6093.3748   219689.0000        8.7730
    5262.56704    34180.1232    10580.1034     6215.7548   220917.0000        8.8230
    5265.93699    34524.0432    10741.8934     6349.1348   222156.0000        8.8730
    5269.32674    34882.9632    10911.6834     6461.5148   223384.0000        8.9230
    5272.73638    35274.8832    11109.4734     6596.8948   224613.0000        8.9730
    5276.16339    35718.8032    11311.2634     6735.2748   225839.0000        9.0230
    5279.61045    36161.7232    11512.0534     6864.6548   227072.0000        9.0730
    5283.07764    36629.6432    11738.8434     7012.0348   228298.0000        9.1230
    5286.56242    37118.5632    11974.6334     7171.4148   229532.0000        9.1730
    5290.06749    37571.4832    12195.4234     7328.7948   230754.0000        9.2230
    5293.59032    38017.4032    12410.2134     7497.1748   231987.0000        9.2730
    5297.13360    38442.3232    12625.0034     7660.5548   233211.0000        9.3230
    5300.69478    38843.2432    12830.7934     7834.9348   234448.0000        9.3730
    5304.27393    39258.1632    13051.5834     8006.3148   235675.0000        9.4230
    5307.87378    39687.0832    13276.3734     8185.6948   236899.0000        9.4730
    5311.49175    40133.0032    13507.1634     8369.0748   238132.0000        9.5230
    5315.13059    40523.9232    13725.9534     8544.4548   239353.0000        9.5730
    5318.78770    40914.8432    13939.7434     8726.8348   240576.0000        9.6230
    5322.46317    41338.7632    14178.5334     8921.2148   241803.0000        9.6730
    5326.15707    41739.6832    14403.3234     9113.5948   243017.0000        9.7230
    5329.87214    42138.6032    14621.1134     9299.9748   244248.0000        9.7730
    5333.60580    42547.5232    14840.9034     9496.3548   245463.0000        9.8230
    5337.35543    42979.4432    15077.6934     9708.7348   246681.0000        9.8730
    5341.12647    43455.3632    15331.4834     9940.1148   247913.0000        9.9230
    5344.91632    43952.2832    15598.2734    10177.4948   249146.0000        9.9730
    5348.72775    44393.2032    15857.0634    10410.8748   250360.0000       10.0230
    5352.55544    44831.1232    16106.8534    10632.2548   251583.0000       10.0730
    5356.40215    45274.0432    16366.6434    10852.6348   252810.0000       10.1230
    5360.26796    45718.9632    16626.4334    11065.0148   254029.0000       10.1730
    5364.15294    46149.8832    16894.2234    11291.3948   255246.0000       10.2230
    5368.05718    46641.8032    17181.0134    11512.7748   256468.0000       10.2730
    5371.98075    47207.7232    17508.8034    11770.1548   257687.0000       10.3230
    5375.92372    47797.6432    17832.5934    12032.5348   258908.0000       10.3730
    5379.88617    48365.5632    18156.3834    12286.9148   260134.0000       10.4230
    5383.86541    48901.4832    18492.1734    12574.2948   261355.0000       10.4730
    5387.86427    49505.4032    18840.9634    12877.6748   262566.0000       10.5230
    5391.88560    50139.3232    19193.7534    13193.0548   263780.0000       10.5730
    5395.92115    50736.2432    19539.5434    13496.4348   264995.0000       10.6230
    5399.97932    51346.1632    19899.3334    13814.8148   266209.0000       10.6730
    5404.05463    51905.0832    20248.1234    14112.1948   267433.0000       10.7230
    5408.14992    52480.0032    20577.9134    14435.5748   268649.0000       10.7730
    5412.26248    53056.9232    20944.7034    14756.9548   269371.0000       10.8230
    5416.39518    53621.8432    21297.4934    15075.3348   271089.0000       10.8730
    5420.54809    54177.7632    21646.2834    15396.7148   272300.0000       10.9230
    5424.71846    54765.6832    22013.0734    15748.0948   273511.0000       10.9730
    5428.90919    55319.6032    22365.8634    16083.4748   274730.0000       11.0230
    5433.11752    55872.5232    22729.6534    16436.8548   275949.0000       11.0730
    5437.34634    56430.4432    23096.4434    16787.2348   277157.0000       11.1230
    5441.59290    57021.3632    23483.2334    17135.6148   278371.0000       11.1730
    5445.86011    57670.2832    23890.0234    17535.9948   279576.0000       11.2230
    5450.14517    58351.2032    24322.8134    17929.3748   280794.0000       11.2730
    5454.45104    59036.1232    24768.6034    18358.7548   282002.0000       11.3230
    5458.77489    59791.0432    25225.3934    18787.1348   283211.0000       11.3730
    5463.11681    60509.9632    25641.1834    19179.5148   284425.0000       11.4230
    5467.47685    61081.8832    25994.9734    19536.8948   285636.0000       11.4730
    5471.85795    61568.8032    26272.7634    19829.2748   286844.0000       11.5230
    5476.25732    62030.7232    26441.5534    20057.6548   288052.0000       11.5730
